title:test left not move test                                                         , recorded:30.11.20 11.41.48, sampling:128, subject:iwasaki                                                                         , labels:COUNTER INTERPOLATED AF3 F7 F3 FC5 T7 P7 O1 O2 P8 T8 FC6 F4 F8 AF4 RAW_CQ GYROX GYROY MARKER SYNC TIME_STAMP_s TIME_STAMP_ms CQ_AF3 CQ_F7 CQ_F3 CQ_FC5 CQ_T7 CQ_P7 CQ_O1 CQ_O2 CQ_P8 CQ_T8 CQ_FC6 CQ_F4 CQ_F8 CQ_AF4 CQ_CMS CQ_DRL, chan:39, units:emotiv
23.00000000000000000000, 0.00000000000000000000, 4352.82040638017860000000, 4842.56398414797700000000, 3951.28195466061240000000, 4794.87167762189800000000, 4019.48708119790760000000, 4664.61527055067200000000, 4273.33322883671460000000, 4444.10245543009300000000, 4388.71784139980810000000, 4172.30759028147170000000, 4432.82040442392370000000, 3781.53836906779450000000, 3959.99990316537970000000, 4369.74348288943290000000, 0.00000000000000000000, 1762.00000000000000000000, 1743.00000000000000000000, 0.00000000000000000000, 0.00000000000000000000, 318.00000000000000000000, 939.00000000000000000000, 0.00000000000000000000, 0.00000000000000000000, 0.00000000000000000000, 0.00000000000000000000, 0.00000000000000000000, 0.00000000000000000000, 0.00000000000000000000, 0.00000000000000000000, 0.00000000000000000000, 0.00000000000000000000, 0.00000000000000000000, 0.00000000000000000000, 0.00000000000000000000, 0.00000000000000000000, 0.00000000000000000000, 0.00000000000000000000
24.00000000000000000000, 0.00000000000000000000, 4364.10245738634790000000, 4843.58962514853740000000, 3955.89733916313620000000, 4793.84603662133760000000, 4013.33323519454280000000, 4666.66655255179380000000, 4273.33322883671460000000, 4447.17937843177510000000, 4386.66655939868630000000, 4186.66656428932400000000, 4439.99989142784940000000, 3783.58965106891580000000, 3968.71785167014650000000, 4372.82040589111510000000, 0.00000000000000000000, 1762.00000000000000000000, 1744.00000000000000000000, 0.00000000000000000000, 0.00000000000000000000, 318.00000000000000000000, 947.00000000000000000000, 0.00000000000000000000, 0.00000000000000000000, 0.00000000000000000000, 0.00000000000000000000, 0.00000000000000000000, 0.00000000000000000000, 0.00000000000000000000, 0.00000000000000000000, 0.00000000000000000000, 0.00000000000000000000, 0.00000000000000000000, 0.00000000000000000000, 0.00000000000000000000, 0.00000000000000000000, 0.00000000000000000000, 0.00000000000000000000
25.00000000000000000000, 0.00000000000000000000, 4362.05117538522610000000, 4834.35885614348990000000, 3950.76913416033180000000, 4789.23065211881390000000, 4009.23067119229930000000, 4664.61527055067200000000, 4293.33322834765020000000, 4457.94860893766420000000, 4390.25630290064960000000, 4188.20502579016470000000, 4443.07681442953250000000, 3777.94862556583170000000, 3971.28195417154850000000, 4367.69220088831120000000, 0.00000000000000000000, 1761.00000000000000000000, 1743.00000000000000000000, 0.00000000000000000000, 0.00000000000000000000, 318.00000000000000000000, 955.00000000000000000000, 0.00000000000000000000, 0.00000000000000000000, 0.00000000000000000000, 0.00000000000000000000, 0.00000000000000000000, 0.00000000000000000000, 0.00000000000000000000, 0.00000000000000000000, 0.00000000000000000000, 0.00000000000000000000, 0.00000000000000000000, 0.00000000000000000000, 0.00000000000000000000, 0.00000000000000000000, 0.00000000000000000000, 0.00000000000000000000
26.00000000000000000000, 0.00000000000000000000, 4336.41015037120540000000, 4824.10244613788200000000, 3933.33323715079770000000, 4783.07680611544860000000, 4002.56400468865420000000, 4666.15373205151350000000, 4293.84604884793040000000, 4457.43578843738400000000, 4395.38450790345360000000, 4168.20502627922910000000, 4426.15373792027820000000, 3758.97426705545600000000, 3957.94862116425790000000, 4347.17938087709440000000, 0.00000000000000000000, 1760.00000000000000000000, 1743.00000000000000000000, 0.00000000000000000000, 0.00000000000000000000, 318.00000000000000000000, 963.00000000000000000000, 0.00000000000000000000, 0.00000000000000000000, 0.00000000000000000000, 0.00000000000000000000, 0.00000000000000000000, 0.00000000000000000000, 0.00000000000000000000, 0.00000000000000000000, 0.00000000000000000000, 0.00000000000000000000, 0.00000000000000000000, 0.00000000000000000000, 0.00000000000000000000, 0.00000000000000000000, 0.00000000000000000000, 0.00000000000000000000
27.00000000000000000000, 0.00000000000000000000, 4324.61527886475600000000, 4827.17936913956420000000, 3931.28195514967590000000, 4785.12808811657030000000, 4002.56400468865420000000, 4663.58962955011160000000, 4275.89733133811660000000, 4442.05117342897120000000, 4390.76912340092990000000, 4151.79477027025500000000, 4416.41014841495050000000, 3753.33324155237140000000, 3951.79477516089260000000, 4341.02553487372920000000, 0.00000000000000000000, 1759.00000000000000000000, 1744.00000000000000000000, 0.00000000000000000000, 0.00000000000000000000, 318.00000000000000000000, 971.00000000000000000000, 0.00000000000000000000, 0.00000000000000000000, 0.00000000000000000000, 0.00000000000000000000, 0.00000000000000000000, 0.00000000000000000000, 0.00000000000000000000, 0.00000000000000000000, 0.00000000000000000000, 0.00000000000000000000, 0.00000000000000000000, 0.00000000000000000000, 0.00000000000000000000, 0.00000000000000000000, 0.00000000000000000000, 0.00000000000000000000
28.00000000000000000000, 0.00000000000000000000, 4348.71784237793510000000, 4838.46142014573340000000, 3948.20503165892980000000, 4791.79475462021580000000, 4012.30759419398190000000, 4659.99988604814830000000, 4278.46143383951860000000, 4442.56399392925140000000, 4387.17937989896650000000, 4169.74348778006970000000, 4434.87168642504550000000, 3770.76913856190550000000, 3961.53836466622080000000, 4360.51271388438540000000, 0.00000000000000000000, 1759.00000000000000000000, 1744.00000000000000000000, 0.00000000000000000000, 0.00000000000000000000, 318.00000000000000000000, 978.00000000000000000000, 0.00000000000000000000, 0.00000000000000000000, 0.00000000000000000000, 0.00000000000000000000, 0.00000000000000000000, 0.00000000000000000000, 0.00000000000000000000, 0.00000000000000000000, 0.00000000000000000000, 0.00000000000000000000, 0.00000000000000000000, 0.00000000000000000000, 0.00000000000000000000, 0.00000000000000000000, 0.00000000000000000000, 0.00000000000000000000
29.00000000000000000000, 0.00000000000000000000, 4365.12809838690920000000, 4836.92295864489280000000, 3950.76913416033180000000, 4789.74347261909410000000, 4009.74349169257990000000, 4663.07680904983140000000, 4299.48707435101550000000, 4461.02553193934640000000, 4393.33322590233180000000, 4185.64092328876270000000, 4445.64091693093450000000, 3778.97426656639210000000, 3971.28195417154850000000, 4372.30758539083490000000, 0.00000000000000000000, 1759.00000000000000000000, 1743.00000000000000000000, 0.00000000000000000000, 0.00000000000000000000, 318.00000000000000000000, 986.00000000000000000000, 0.00000000000000000000, 0.00000000000000000000, 0.00000000000000000000, 0.00000000000000000000, 0.00000000000000000000, 0.00000000000000000000, 0.00000000000000000000, 0.00000000000000000000, 0.00000000000000000000, 0.00000000000000000000, 0.00000000000000000000, 0.00000000000000000000, 0.00000000000000000000, 0.00000000000000000000, 0.00000000000000000000, 0.00000000000000000000
30.00000000000000000000, 0.00000000000000000000, 4359.48707288382410000000, 4834.35885614348990000000, 3947.17939065836890000000, 4791.28193411993560000000, 4003.07682518893440000000, 4662.56398854955020000000, 4299.99989485129570000000, 4463.58963444074930000000, 4395.38450790345360000000, 4177.94861578455680000000, 4438.46142992700880000000, 3777.43580506555100000000, 3967.69221066958560000000, 4366.15373938746960000000, 0.00000000000000000000, 1758.00000000000000000000, 1744.00000000000000000000, 0.00000000000000000000, 0.00000000000000000000, 318.00000000000000000000, 994.00000000000000000000, 0.00000000000000000000, 0.00000000000000000000, 0.00000000000000000000, 0.00000000000000000000, 0.00000000000000000000, 0.00000000000000000000, 0.00000000000000000000, 0.00000000000000000000, 0.00000000000000000000, 0.00000000000000000000, 0.00000000000000000000, 0.00000000000000000000, 0.00000000000000000000, 0.00000000000000000000, 0.00000000000000000000, 0.00000000000000000000
31.00000000000000000000, 0.00000000000000000000, 4360.51271388438540000000, 4843.07680464825720000000, 3954.87169816257530000000, 4797.94860062358110000000, 4009.74349169257990000000, 4659.48706554786800000000, 4278.97425433979880000000, 4444.10245543009300000000, 4382.56399539644280000000, 4175.38451328315480000000, 4434.87168642504550000000, 3786.15375357031830000000, 3959.99990316537970000000, 4365.64091888718940000000, 0.00000000000000000000, 1760.00000000000000000000, 1742.00000000000000000000, 0.00000000000000000000, 0.00000000000000000000, 319.00000000000000000000, 2.00000000000000000000, 0.00000000000000000000, 0.00000000000000000000, 0.00000000000000000000, 0.00000000000000000000, 0.00000000000000000000, 0.00000000000000000000, 0.00000000000000000000, 0.00000000000000000000, 0.00000000000000000000, 0.00000000000000000000, 0.00000000000000000000, 0.00000000000000000000, 0.00000000000000000000, 0.00000000000000000000, 0.00000000000000000000, 0.00000000000000000000
32.00000000000000000000, 0.00000000000000000000, 4361.53835488494590000000, 4841.53834314741650000000, 3955.89733916313620000000, 4793.33321612105740000000, 4011.28195319342100000000, 4659.99988604814830000000, 4275.89733133811660000000, 4435.89732742560680000000, 4375.38450839251710000000, 4177.43579528427650000000, 4436.41014792588700000000, 3787.69221507115940000000, 3958.97426216481880000000, 4366.66655988774980000000, 0.00000000000000000000, 1759.00000000000000000000, 1744.00000000000000000000, 0.00000000000000000000, 0.00000000000000000000, 319.00000000000000000000, 10.00000000000000000000, 0.00000000000000000000, 0.00000000000000000000, 0.00000000000000000000, 0.00000000000000000000, 0.00000000000000000000, 0.00000000000000000000, 0.00000000000000000000, 0.00000000000000000000, 0.00000000000000000000, 0.00000000000000000000, 0.00000000000000000000, 0.00000000000000000000, 0.00000000000000000000, 0.00000000000000000000, 0.00000000000000000000, 0.00000000000000000000
33.00000000000000000000, 0.00000000000000000000, 4348.20502187765490000000, 4826.66654863928400000000, 3941.02554465500410000000, 4786.66654961741190000000, 4004.10246618949530000000, 4661.02552704870960000000, 4298.97425385073530000000, 4456.41014743682260000000, 4392.30758490177050000000, 4168.20502627922910000000, 4429.74348142224150000000, 3773.33324106330790000000, 3959.48708266509900000000, 4361.02553438466570000000, 0.00000000000000000000, 1761.00000000000000000000, 1744.00000000000000000000, 0.00000000000000000000, 0.00000000000000000000, 319.00000000000000000000, 18.00000000000000000000, 0.00000000000000000000, 0.00000000000000000000, 0.00000000000000000000, 0.00000000000000000000, 0.00000000000000000000, 0.00000000000000000000, 0.00000000000000000000, 0.00000000000000000000, 0.00000000000000000000, 0.00000000000000000000, 0.00000000000000000000, 0.00000000000000000000, 0.00000000000000000000, 0.00000000000000000000, 0.00000000000000000000, 0.00000000000000000000
34.00000000000000000000, 0.00000000000000000000, 4346.66656037681420000000, 4829.74347164096620000000, 3941.53836515528430000000, 4791.79475462021580000000, 4013.33323519454280000000, 4662.05116804927000000000, 4302.05117685241750000000, 4464.61527544130970000000, 4401.53835390681890000000, 4167.69220577894790000000, 4427.17937892083960000000, 3770.25631806162530000000, 3963.07682616706190000000, 4362.56399588550630000000, 0.00000000000000000000, 1760.00000000000000000000, 1745.00000000000000000000, 0.00000000000000000000, 0.00000000000000000000, 319.00000000000000000000, 25.00000000000000000000, 0.00000000000000000000, 0.00000000000000000000, 0.00000000000000000000, 0.00000000000000000000, 0.00000000000000000000, 0.00000000000000000000, 0.00000000000000000000, 0.00000000000000000000, 0.00000000000000000000, 0.00000000000000000000, 0.00000000000000000000, 0.00000000000000000000, 0.00000000000000000000, 0.00000000000000000000, 0.00000000000000000000, 0.00000000000000000000
35.00000000000000000000, 0.00000000000000000000, 4358.46143188326370000000, 4840.51270214685520000000, 3953.84605716201440000000, 4792.82039562077630000000, 4025.12810670099220000000, 4664.61527055067200000000, 4297.43579234989370000000, 4445.12809643065430000000, 4384.10245689728440000000, 4171.28194928091120000000, 4433.33322492420390000000, 3779.99990756695300000000, 3965.12810816818360000000, 4367.17938038803090000000, 0.00000000000000000000, 1761.00000000000000000000, 1746.00000000000000000000, 0.00000000000000000000, 0.00000000000000000000, 319.00000000000000000000, 33.00000000000000000000, 0.00000000000000000000, 0.00000000000000000000, 0.00000000000000000000, 0.00000000000000000000, 0.00000000000000000000, 0.00000000000000000000, 0.00000000000000000000, 0.00000000000000000000, 0.00000000000000000000, 0.00000000000000000000, 0.00000000000000000000, 0.00000000000000000000, 0.00000000000000000000, 0.00000000000000000000, 0.00000000000000000000, 0.00000000000000000000
36.00000000000000000000, 0.00000000000000000000, 4361.02553438466570000000, 4837.94859964545320000000, 3956.92298016369700000000, 4791.79475462021580000000, 4021.53836319902940000000, 4666.66655255179380000000, 4310.25630485690450000000, 4438.46142992700880000000, 4376.92296989335860000000, 4170.76912878063100000000, 4441.53835292869100000000, 3787.17939457087910000000, 3964.61528766790340000000, 4369.23066238915180000000, 0.00000000000000000000, 1761.00000000000000000000, 1745.00000000000000000000, 0.00000000000000000000, 0.00000000000000000000, 319.00000000000000000000, 41.00000000000000000000, 0.00000000000000000000, 0.00000000000000000000, 0.00000000000000000000, 0.00000000000000000000, 0.00000000000000000000, 0.00000000000000000000, 0.00000000000000000000, 0.00000000000000000000, 0.00000000000000000000, 0.00000000000000000000, 0.00000000000000000000, 0.00000000000000000000, 0.00000000000000000000, 0.00000000000000000000, 0.00000000000000000000, 0.00000000000000000000
37.00000000000000000000, 0.00000000000000000000, 4361.53835488494590000000, 4841.53834314741650000000, 3958.46144166453810000000, 4798.46142112386130000000, 4014.87169669538390000000, 4663.07680904983140000000, 4305.12809985409970000000, 4454.87168593598200000000, 4397.43578990457540000000, 4181.02553878623890000000, 4445.12809643065430000000, 3789.23067657200040000000, 3970.25631317098760000000, 4373.84604689167550000000, 0.00000000000000000000, 1762.00000000000000000000, 1746.00000000000000000000, 0.00000000000000000000, 0.00000000000000000000, 319.00000000000000000000, 49.00000000000000000000, 0.00000000000000000000, 0.00000000000000000000, 0.00000000000000000000, 0.00000000000000000000, 0.00000000000000000000, 0.00000000000000000000, 0.00000000000000000000, 0.00000000000000000000, 0.00000000000000000000, 0.00000000000000000000, 0.00000000000000000000, 0.00000000000000000000, 0.00000000000000000000, 0.00000000000000000000, 0.00000000000000000000, 0.00000000000000000000
38.00000000000000000000, 0.00000000000000000000, 4360.51271388438540000000, 4844.10244564881850000000, 3955.89733916313620000000, 4798.46142112386130000000, 4010.76913269314080000000, 4656.41014254618590000000, 4274.87169033755530000000, 4461.53835243962750000000, 4404.10245640822090000000, 4188.20502579016470000000, 4434.35886592476530000000, 3785.12811256975740000000, 3969.23067217042720000000, 4371.79476489055470000000, 0.00000000000000000000, 1762.00000000000000000000, 1744.00000000000000000000, 0.00000000000000000000, 0.00000000000000000000, 319.00000000000000000000, 57.00000000000000000000, 0.00000000000000000000, 0.00000000000000000000, 0.00000000000000000000, 0.00000000000000000000, 0.00000000000000000000, 0.00000000000000000000, 0.00000000000000000000, 0.00000000000000000000, 0.00000000000000000000, 0.00000000000000000000, 0.00000000000000000000, 0.00000000000000000000, 0.00000000000000000000, 0.00000000000000000000, 0.00000000000000000000, 0.00000000000000000000
39.00000000000000000000, 0.00000000000000000000, 4355.38450888158060000000, 4833.84603564320970000000, 3948.71785215921050000000, 4793.33321612105740000000, 4007.17938919117800000000, 4656.92296304646610000000, 4270.25630583503150000000, 4453.33322443514040000000, 4389.74348240036850000000, 4179.48707728539830000000, 4427.69219942111980000000, 3778.46144606611190000000, 3960.51272366565990000000, 4366.15373938746960000000, 0.00000000000000000000, 1763.00000000000000000000, 1744.00000000000000000000, 0.00000000000000000000, 0.00000000000000000000, 319.00000000000000000000, 64.00000000000000000000, 0.00000000000000000000, 0.00000000000000000000, 0.00000000000000000000, 0.00000000000000000000, 0.00000000000000000000, 0.00000000000000000000, 0.00000000000000000000, 0.00000000000000000000, 0.00000000000000000000, 0.00000000000000000000, 0.00000000000000000000, 0.00000000000000000000, 0.00000000000000000000, 0.00000000000000000000, 0.00000000000000000000, 0.00000000000000000000
40.00000000000000000000, 0.00000000000000000000, 4357.43579088270230000000, 4827.69218963984530000000, 3951.79477516089260000000, 4792.82039562077630000000, 4007.69220969145820000000, 4663.07680904983140000000, 4291.28194634652850000000, 4457.43578843738400000000, 4393.84604640261200000000, 4180.51271828595870000000, 4438.97425042728900000000, 3780.51272806723360000000, 3965.64092866846390000000, 4372.30758539083490000000, 0.00000000000000000000, 1763.00000000000000000000, 1743.00000000000000000000, 0.00000000000000000000, 0.00000000000000000000, 319.00000000000000000000, 72.00000000000000000000, 0.00000000000000000000, 0.00000000000000000000, 0.00000000000000000000, 0.00000000000000000000, 0.00000000000000000000, 0.00000000000000000000, 0.00000000000000000000, 0.00000000000000000000, 0.00000000000000000000, 0.00000000000000000000, 0.00000000000000000000, 0.00000000000000000000, 0.00000000000000000000, 0.00000000000000000000, 0.00000000000000000000, 0.00000000000000000000
41.00000000000000000000, 0.00000000000000000000, 4359.99989338410430000000, 4832.82039464264930000000, 3957.94862116425790000000, 4789.23065211881390000000, 4011.28195319342100000000, 4662.56398854955020000000, 4288.71784384512650000000, 4456.92296793710370000000, 4399.48707190569710000000, 4186.15374378904290000000, 4444.10245543009300000000, 3785.12811256975740000000, 3971.28195417154850000000, 4378.97425189448040000000, 0.00000000000000000000, 1763.00000000000000000000, 1744.00000000000000000000, 0.00000000000000000000, 0.00000000000000000000, 319.00000000000000000000, 80.00000000000000000000, 0.00000000000000000000, 0.00000000000000000000, 0.00000000000000000000, 0.00000000000000000000, 0.00000000000000000000, 0.00000000000000000000, 0.00000000000000000000, 0.00000000000000000000, 0.00000000000000000000, 0.00000000000000000000, 0.00000000000000000000, 0.00000000000000000000, 0.00000000000000000000, 0.00000000000000000000, 0.00000000000000000000, 0.00000000000000000000
42.00000000000000000000, 0.00000000000000000000, 4352.82040638017860000000, 4834.87167664377100000000, 3949.23067265949070000000, 4785.12808811657030000000, 4003.07682518893440000000, 4662.05116804927000000000, 4273.84604933699480000000, 4435.38450692532570000000, 4387.17937989896650000000, 4175.38451328315480000000, 4429.74348142224150000000, 3776.41016406499010000000, 3959.48708266509900000000, 4367.17938038803090000000, 0.00000000000000000000, 1764.00000000000000000000, 1743.00000000000000000000, 0.00000000000000000000, 0.00000000000000000000, 319.00000000000000000000, 88.00000000000000000000, 0.00000000000000000000, 0.00000000000000000000, 0.00000000000000000000, 0.00000000000000000000, 0.00000000000000000000, 0.00000000000000000000, 0.00000000000000000000, 0.00000000000000000000, 0.00000000000000000000, 0.00000000000000000000, 0.00000000000000000000, 0.00000000000000000000, 0.00000000000000000000, 0.00000000000000000000, 0.00000000000000000000, 0.00000000000000000000
43.00000000000000000000, 0.00000000000000000000, 4345.12809887597270000000, 4828.20501014012550000000, 3937.94862165332140000000, 4786.15372911713080000000, 3994.35887668416760000000, 4669.74347555347690000000, 4276.92297233867700000000, 4426.15373792027820000000, 4381.53835439588240000000, 4169.74348778006970000000, 4416.92296891523070000000, 3765.12811305882090000000, 3952.82041616145350000000, 4353.33322688045880000000, 0.00000000000000000000, 1762.00000000000000000000, 1745.00000000000000000000, 0.00000000000000000000, 0.00000000000000000000, 319.00000000000000000000, 96.00000000000000000000, 0.00000000000000000000, 0.00000000000000000000, 0.00000000000000000000, 0.00000000000000000000, 0.00000000000000000000, 0.00000000000000000000, 0.00000000000000000000, 0.00000000000000000000, 0.00000000000000000000, 0.00000000000000000000, 0.00000000000000000000, 0.00000000000000000000, 0.00000000000000000000, 0.00000000000000000000, 0.00000000000000000000, 0.00000000000000000000
44.00000000000000000000, 0.00000000000000000000, 4352.30758587989840000000, 4831.79475364208790000000, 3945.64092915752780000000, 4790.76911361965450000000, 4006.15374819061710000000, 4666.66655255179380000000, 4286.15374134372450000000, 4437.94860942672770000000, 4379.48707239476060000000, 4172.30759028147170000000, 4427.69219942111980000000, 3772.82042056302730000000, 3960.51272366565990000000, 4362.56399588550630000000, 0.00000000000000000000, 1763.00000000000000000000, 1745.00000000000000000000, 0.00000000000000000000, 0.00000000000000000000, 319.00000000000000000000, 104.00000000000000000000, 0.00000000000000000000, 0.00000000000000000000, 0.00000000000000000000, 0.00000000000000000000, 0.00000000000000000000, 0.00000000000000000000, 0.00000000000000000000, 0.00000000000000000000, 0.00000000000000000000, 0.00000000000000000000, 0.00000000000000000000, 0.00000000000000000000, 0.00000000000000000000, 0.00000000000000000000, 0.00000000000000000000, 0.00000000000000000000
45.00000000000000000000, 0.00000000000000000000, 4367.17938038803090000000, 4844.10244564881850000000, 3961.02554416594010000000, 4800.51270312498310000000, 4016.92297869650570000000, 4652.82039904422250000000, 4285.64092084344430000000, 4451.28194243401870000000, 4382.56399539644280000000, 4170.25630828035080000000, 4444.61527593037320000000, 3788.71785607172020000000, 3967.17939016930540000000, 4383.58963639700410000000, 0.00000000000000000000, 1762.00000000000000000000, 1746.00000000000000000000, 0.00000000000000000000, 0.00000000000000000000, 319.00000000000000000000, 111.00000000000000000000, 0.00000000000000000000, 0.00000000000000000000, 0.00000000000000000000, 0.00000000000000000000, 0.00000000000000000000, 0.00000000000000000000, 0.00000000000000000000, 0.00000000000000000000, 0.00000000000000000000, 0.00000000000000000000, 0.00000000000000000000, 0.00000000000000000000, 0.00000000000000000000, 0.00000000000000000000, 0.00000000000000000000, 0.00000000000000000000
46.00000000000000000000, 0.00000000000000000000, 4373.33322639139530000000, 4843.07680464825720000000, 3958.97426216481880000000, 4805.64090812778700000000, 4009.74349169257990000000, 4652.82039904422250000000, 4274.35886983727510000000, 4448.71783993261670000000, 4389.23066190008830000000, 4175.38451328315480000000, 4442.56399392925140000000, 3788.20503557144000000000, 3968.20503116986630000000, 4385.64091839812590000000, 0.00000000000000000000, 1762.00000000000000000000, 1747.00000000000000000000, 0.00000000000000000000, 0.00000000000000000000, 319.00000000000000000000, 119.00000000000000000000, 0.00000000000000000000, 0.00000000000000000000, 0.00000000000000000000, 0.00000000000000000000, 0.00000000000000000000, 0.00000000000000000000, 0.00000000000000000000, 0.00000000000000000000, 0.00000000000000000000, 0.00000000000000000000, 0.00000000000000000000, 0.00000000000000000000, 0.00000000000000000000, 0.00000000000000000000, 0.00000000000000000000, 0.00000000000000000000
47.00000000000000000000, 0.00000000000000000000, 4362.56399588550630000000, 4829.23065114068590000000, 3946.15374965780800000000, 4793.33321612105740000000, 3999.48708168697160000000, 4657.94860404702650000000, 4270.25630583503150000000, 4429.74348142224150000000, 4372.82040589111510000000, 4178.97425678511720000000, 4427.17937892083960000000, 3772.30760006274700000000, 3964.10246716762280000000, 4368.20502138859140000000, 0.00000000000000000000, 1761.00000000000000000000, 1747.00000000000000000000, 0.00000000000000000000, 0.00000000000000000000, 319.00000000000000000000, 127.00000000000000000000, 0.00000000000000000000, 0.00000000000000000000, 0.00000000000000000000, 0.00000000000000000000, 0.00000000000000000000, 0.00000000000000000000, 0.00000000000000000000, 0.00000000000000000000, 0.00000000000000000000, 0.00000000000000000000, 0.00000000000000000000, 0.00000000000000000000, 0.00000000000000000000, 0.00000000000000000000, 0.00000000000000000000, 0.00000000000000000000
48.00000000000000000000, 0.00000000000000000000, 4345.12809887597270000000, 4824.61526663816220000000, 3943.07682665612580000000, 4781.53834461460700000000, 3996.41015868528890000000, 4653.84604004478390000000, 4283.07681834204230000000, 4429.23066092196130000000, 4361.02553438466570000000, 4161.53835977558360000000, 4415.38450741439010000000, 3763.58965155797980000000, 3950.76913416033180000000, 4350.76912437905680000000, 0.00000000000000000000, 1760.00000000000000000000, 1748.00000000000000000000, 0.00000000000000000000, 0.00000000000000000000, 319.00000000000000000000, 135.00000000000000000000, 0.00000000000000000000, 0.00000000000000000000, 0.00000000000000000000, 0.00000000000000000000, 0.00000000000000000000, 0.00000000000000000000, 0.00000000000000000000, 0.00000000000000000000, 0.00000000000000000000, 0.00000000000000000000, 0.00000000000000000000, 0.00000000000000000000, 0.00000000000000000000, 0.00000000000000000000, 0.00000000000000000000, 0.00000000000000000000
49.00000000000000000000, 0.00000000000000000000, 4335.89732987092520000000, 4826.66654863928400000000, 3945.12810865724760000000, 4779.99988311376640000000, 3995.38451768472810000000, 4654.87168104534430000000, 4295.89733084905220000000, 4445.64091693093450000000, 4377.43579039363890000000, 4147.17938576773120000000, 4411.79476391242680000000, 3765.64093355910150000000, 3944.10246765668670000000, 4340.51271437344890000000, 0.00000000000000000000, 1760.00000000000000000000, 1746.00000000000000000000, 0.00000000000000000000, 0.00000000000000000000, 319.00000000000000000000, 143.00000000000000000000, 0.00000000000000000000, 0.00000000000000000000, 0.00000000000000000000, 0.00000000000000000000, 0.00000000000000000000, 0.00000000000000000000, 0.00000000000000000000, 0.00000000000000000000, 0.00000000000000000000, 0.00000000000000000000, 0.00000000000000000000, 0.00000000000000000000, 0.00000000000000000000, 0.00000000000000000000, 0.00000000000000000000, 0.00000000000000000000
50.00000000000000000000, 0.00000000000000000000, 4341.02553487372920000000, 4825.12808713844240000000, 3941.53836515528430000000, 4779.99988311376640000000, 4000.51272268753250000000, 4662.05116804927000000000, 4294.87168984849180000000, 4441.02553242841080000000, 4372.30758539083490000000, 4151.79477027025500000000, 4413.84604591354860000000, 3764.61529255854070000000, 3950.25631366005150000000, 4339.48707337288760000000, 0.00000000000000000000, 1760.00000000000000000000, 1746.00000000000000000000, 0.00000000000000000000, 0.00000000000000000000, 319.00000000000000000000, 150.00000000000000000000, 0.00000000000000000000, 0.00000000000000000000, 0.00000000000000000000, 0.00000000000000000000, 0.00000000000000000000, 0.00000000000000000000, 0.00000000000000000000, 0.00000000000000000000, 0.00000000000000000000, 0.00000000000000000000, 0.00000000000000000000, 0.00000000000000000000, 0.00000000000000000000, 0.00000000000000000000, 0.00000000000000000000, 0.00000000000000000000
51.00000000000000000000, 0.00000000000000000000, 4355.38450888158060000000, 4830.76911264152750000000, 3947.17939065836890000000, 4785.64090861685050000000, 4003.07682518893440000000, 4662.56398854955020000000, 4294.87168984849180000000, 4428.71784042168020000000, 4356.41014988214190000000, 4159.99989827474200000000, 4422.56399441831580000000, 3763.58965155797980000000, 3958.46144166453810000000, 4352.82040638017860000000, 0.00000000000000000000, 1759.00000000000000000000, 1745.00000000000000000000, 0.00000000000000000000, 0.00000000000000000000, 319.00000000000000000000, 158.00000000000000000000, 0.00000000000000000000, 0.00000000000000000000, 0.00000000000000000000, 0.00000000000000000000, 0.00000000000000000000, 0.00000000000000000000, 0.00000000000000000000, 0.00000000000000000000, 0.00000000000000000000, 0.00000000000000000000, 0.00000000000000000000, 0.00000000000000000000, 0.00000000000000000000, 0.00000000000000000000, 0.00000000000000000000, 0.00000000000000000000
52.00000000000000000000, 0.00000000000000000000, 4366.15373938746960000000, 4842.56398414797700000000, 3959.99990316537970000000, 4795.38449812217820000000, 3999.48708168697160000000, 4664.10245005039180000000, 4297.94861285017400000000, 4451.28194243401870000000, 4383.07681589672300000000, 4174.87169278287460000000, 4436.41014792588700000000, 3773.84606156358810000000, 3966.66656966902470000000, 4372.30758539083490000000, 0.00000000000000000000, 1759.00000000000000000000, 1744.00000000000000000000, 0.00000000000000000000, 0.00000000000000000000, 319.00000000000000000000, 166.00000000000000000000, 0.00000000000000000000, 0.00000000000000000000, 0.00000000000000000000, 0.00000000000000000000, 0.00000000000000000000, 0.00000000000000000000, 0.00000000000000000000, 0.00000000000000000000, 0.00000000000000000000, 0.00000000000000000000, 0.00000000000000000000, 0.00000000000000000000, 0.00000000000000000000, 0.00000000000000000000, 0.00000000000000000000, 0.00000000000000000000
53.00000000000000000000, 0.00000000000000000000, 4366.15373938746960000000, 4844.10244564881850000000, 3960.51272366565990000000, 4794.35885712161780000000, 4005.64092769033640000000, 4668.20501405263530000000, 4297.43579234989370000000, 4475.38450594719870000000, 4409.74348191130500000000, 4188.71784629044580000000, 4443.07681442953250000000, 3785.64093307003760000000, 3972.30759517210940000000, 4382.56399539644280000000, 0.00000000000000000000, 1760.00000000000000000000, 1743.00000000000000000000, 0.00000000000000000000, 0.00000000000000000000, 319.00000000000000000000, 174.00000000000000000000, 0.00000000000000000000, 0.00000000000000000000, 0.00000000000000000000, 0.00000000000000000000, 0.00000000000000000000, 0.00000000000000000000, 0.00000000000000000000, 0.00000000000000000000, 0.00000000000000000000, 0.00000000000000000000, 0.00000000000000000000, 0.00000000000000000000, 0.00000000000000000000, 0.00000000000000000000, 0.00000000000000000000, 0.00000000000000000000
54.00000000000000000000, 0.00000000000000000000, 4364.61527788662810000000, 4842.56398414797700000000, 3956.92298016369700000000, 4790.25629311937430000000, 4017.43579919678630000000, 4664.61527055067200000000, 4292.82040784737000000000, 4471.28194194495520000000, 4405.12809740878130000000, 4189.23066679072600000000, 4444.61527593037320000000, 3786.66657407059850000000, 3969.23067217042720000000, 4382.56399539644280000000, 0.00000000000000000000, 1761.00000000000000000000, 1743.00000000000000000000, 0.00000000000000000000, 0.00000000000000000000, 319.00000000000000000000, 182.00000000000000000000, 0.00000000000000000000, 0.00000000000000000000, 0.00000000000000000000, 0.00000000000000000000, 0.00000000000000000000, 0.00000000000000000000, 0.00000000000000000000, 0.00000000000000000000, 0.00000000000000000000, 0.00000000000000000000, 0.00000000000000000000, 0.00000000000000000000, 0.00000000000000000000, 0.00000000000000000000, 0.00000000000000000000, 0.00000000000000000000
55.00000000000000000000, 0.00000000000000000000, 4369.74348288943290000000, 4844.61526614909870000000, 3957.94862116425790000000, 4791.28193411993560000000, 4019.99990169818830000000, 4658.97424504758780000000, 4276.92297233867700000000, 4455.89732693654240000000, 4398.46143090513580000000, 4187.17938478960420000000, 4446.15373743121470000000, 3781.02554856751390000000, 3962.56400566678170000000, 4378.97425189448040000000, 0.00000000000000000000, 1762.00000000000000000000, 1743.00000000000000000000, 0.00000000000000000000, 0.00000000000000000000, 319.00000000000000000000, 190.00000000000000000000, 0.00000000000000000000, 0.00000000000000000000, 0.00000000000000000000, 0.00000000000000000000, 0.00000000000000000000, 0.00000000000000000000, 0.00000000000000000000, 0.00000000000000000000, 0.00000000000000000000, 0.00000000000000000000, 0.00000000000000000000, 0.00000000000000000000, 0.00000000000000000000, 0.00000000000000000000, 0.00000000000000000000, 0.00000000000000000000
56.00000000000000000000, 0.00000000000000000000, 4371.79476489055470000000, 4845.64090714965910000000, 3958.46144166453810000000, 4795.89731862245940000000, 4013.33323519454280000000, 4658.97424504758780000000, 4269.23066483447110000000, 4452.30758343458000000000, 4397.43578990457540000000, 4183.58964128764090000000, 4442.05117342897120000000, 3778.97426656639210000000, 3963.07682616706190000000, 4373.33322639139530000000, 0.00000000000000000000, 1762.00000000000000000000, 1744.00000000000000000000, 0.00000000000000000000, 0.00000000000000000000, 319.00000000000000000000, 197.00000000000000000000, 0.00000000000000000000, 0.00000000000000000000, 0.00000000000000000000, 0.00000000000000000000, 0.00000000000000000000, 0.00000000000000000000, 0.00000000000000000000, 0.00000000000000000000, 0.00000000000000000000, 0.00000000000000000000, 0.00000000000000000000, 0.00000000000000000000, 0.00000000000000000000, 0.00000000000000000000, 0.00000000000000000000, 0.00000000000000000000
57.00000000000000000000, 0.00000000000000000000, 4367.69220088831120000000, 4845.12808664937890000000, 3957.94862116425790000000, 4804.10244662694550000000, 4009.23067119229930000000, 4659.99988604814830000000, 4288.20502334484630000000, 4471.28194194495520000000, 4404.61527690850110000000, 4182.56400028708050000000, 4440.51271192813060000000, 3782.05118956807470000000, 3966.15374916874450000000, 4371.79476489055470000000, 0.00000000000000000000, 1764.00000000000000000000, 1745.00000000000000000000, 0.00000000000000000000, 0.00000000000000000000, 319.00000000000000000000, 205.00000000000000000000, 0.00000000000000000000, 0.00000000000000000000, 0.00000000000000000000, 0.00000000000000000000, 0.00000000000000000000, 0.00000000000000000000, 0.00000000000000000000, 0.00000000000000000000, 0.00000000000000000000, 0.00000000000000000000, 0.00000000000000000000, 0.00000000000000000000, 0.00000000000000000000, 0.00000000000000000000, 0.00000000000000000000, 0.00000000000000000000
58.00000000000000000000, 0.00000000000000000000, 4366.66655988774980000000, 4844.10244564881850000000, 3957.43580066397730000000, 4807.17936962862860000000, 4012.30759419398190000000, 4659.99988604814830000000, 4293.84604884793040000000, 4473.33322394607690000000, 4404.10245640822090000000, 4189.23066679072600000000, 4445.12809643065430000000, 3785.12811256975740000000, 3966.15374916874450000000, 4376.41014939307840000000, 0.00000000000000000000, 1764.00000000000000000000, 1745.00000000000000000000, 0.00000000000000000000, 0.00000000000000000000, 319.00000000000000000000, 213.00000000000000000000, 0.00000000000000000000, 0.00000000000000000000, 0.00000000000000000000, 0.00000000000000000000, 0.00000000000000000000, 0.00000000000000000000, 0.00000000000000000000, 0.00000000000000000000, 0.00000000000000000000, 0.00000000000000000000, 0.00000000000000000000, 0.00000000000000000000, 0.00000000000000000000, 0.00000000000000000000, 0.00000000000000000000, 0.00000000000000000000
59.00000000000000000000, 0.00000000000000000000, 4367.17938038803090000000, 4841.53834314741650000000, 3957.43580066397730000000, 4797.43578012330000000000, 4012.30759419398190000000, 4661.02552704870960000000, 4280.51271584064030000000, 4441.02553242841080000000, 4377.43579039363890000000, 4178.97425678511720000000, 4439.99989142784940000000, 3778.97426656639210000000, 3963.07682616706190000000, 4372.82040589111510000000, 0.00000000000000000000, 1765.00000000000000000000, 1744.00000000000000000000, 0.00000000000000000000, 0.00000000000000000000, 319.00000000000000000000, 221.00000000000000000000, 0.00000000000000000000, 0.00000000000000000000, 0.00000000000000000000, 0.00000000000000000000, 0.00000000000000000000, 0.00000000000000000000, 0.00000000000000000000, 0.00000000000000000000, 0.00000000000000000000, 0.00000000000000000000, 0.00000000000000000000, 0.00000000000000000000, 0.00000000000000000000, 0.00000000000000000000, 0.00000000000000000000, 0.00000000000000000000
60.00000000000000000000, 0.00000000000000000000, 4356.92297038242210000000, 4839.99988164657500000000, 3955.89733916313620000000, 4786.66654961741190000000, 4004.10246618949530000000, 4663.58962955011160000000, 4295.38451034877200000000, 4438.46142992700880000000, 4368.71784188887160000000, 4154.87169327193810000000, 4425.12809691971780000000, 3767.69221556022330000000, 3950.76913416033180000000, 4356.41014988214190000000, 0.00000000000000000000, 1766.00000000000000000000, 1744.00000000000000000000, 0.00000000000000000000, 0.00000000000000000000, 319.00000000000000000000, 229.00000000000000000000, 0.00000000000000000000, 0.00000000000000000000, 0.00000000000000000000, 0.00000000000000000000, 0.00000000000000000000, 0.00000000000000000000, 0.00000000000000000000, 0.00000000000000000000, 0.00000000000000000000, 0.00000000000000000000, 0.00000000000000000000, 0.00000000000000000000, 0.00000000000000000000, 0.00000000000000000000, 0.00000000000000000000, 0.00000000000000000000
61.00000000000000000000, 0.00000000000000000000, 4351.79476537961820000000, 4839.48706114629480000000, 3953.33323666173420000000, 4787.17937011769210000000, 4002.05118418837360000000, 4668.71783455291550000000, 4317.43579186083020000000, 4470.76912144467500000000, 4398.46143090513580000000, 4161.02553927530330000000, 4426.15373792027820000000, 3772.82042056302730000000, 3951.28195466061240000000, 4354.87168838130040000000, 0.00000000000000000000, 1767.00000000000000000000, 1742.00000000000000000000, 0.00000000000000000000, 0.00000000000000000000, 319.00000000000000000000, 236.00000000000000000000, 0.00000000000000000000, 0.00000000000000000000, 0.00000000000000000000, 0.00000000000000000000, 0.00000000000000000000, 0.00000000000000000000, 0.00000000000000000000, 0.00000000000000000000, 0.00000000000000000000, 0.00000000000000000000, 0.00000000000000000000, 0.00000000000000000000, 0.00000000000000000000, 0.00000000000000000000, 0.00000000000000000000, 0.00000000000000000000
62.00000000000000000000, 0.00000000000000000000, 4364.10245738634790000000, 4843.07680464825720000000, 3956.41015966341640000000, 4792.82039562077630000000, 4012.82041469426260000000, 4665.12809105095310000000, 4296.92297184961350000000, 4462.05117293990770000000, 4402.05117440709910000000, 4183.58964128764090000000, 4443.58963492981270000000, 3788.71785607172020000000, 3968.20503116986630000000, 4375.89732889279730000000, 0.00000000000000000000, 1766.00000000000000000000, 1742.00000000000000000000, 0.00000000000000000000, 0.00000000000000000000, 319.00000000000000000000, 244.00000000000000000000, 0.00000000000000000000, 0.00000000000000000000, 0.00000000000000000000, 0.00000000000000000000, 0.00000000000000000000, 0.00000000000000000000, 0.00000000000000000000, 0.00000000000000000000, 0.00000000000000000000, 0.00000000000000000000, 0.00000000000000000000, 0.00000000000000000000, 0.00000000000000000000, 0.00000000000000000000, 0.00000000000000000000, 0.00000000000000000000
63.00000000000000000000, 0.00000000000000000000, 4369.23066238915180000000, 4847.69218915078090000000, 3958.97426216481880000000, 4794.87167762189800000000, 4016.92297869650570000000, 4661.02552704870960000000, 4268.71784433419090000000, 4423.58963541887620000000, 4370.76912388999340000000, 4182.05117978680030000000, 4446.15373743121470000000, 3789.74349707228110000000, 3970.76913367126830000000, 4384.10245689728440000000, 0.00000000000000000000, 1768.00000000000000000000, 1742.00000000000000000000, 0.00000000000000000000, 0.00000000000000000000, 319.00000000000000000000, 252.00000000000000000000, 0.00000000000000000000, 0.00000000000000000000, 0.00000000000000000000, 0.00000000000000000000, 0.00000000000000000000, 0.00000000000000000000, 0.00000000000000000000, 0.00000000000000000000, 0.00000000000000000000, 0.00000000000000000000, 0.00000000000000000000, 0.00000000000000000000, 0.00000000000000000000, 0.00000000000000000000, 0.00000000000000000000, 0.00000000000000000000
64.00000000000000000000, 0.00000000000000000000, 4355.89732938186170000000, 4835.89731764433150000000, 3950.25631366005150000000, 4791.28193411993560000000, 4006.66656869089730000000, 4668.71783455291550000000, 4282.05117734148100000000, 4426.66655842055840000000, 4364.10245738634790000000, 4170.76912878063100000000, 4431.79476342336330000000, 3777.94862556583170000000, 3957.43580066397730000000, 4367.69220088831120000000, 379.00000000000000000000, 1766.00000000000000000000, 1743.00000000000000000000, 0.00000000000000000000, 0.00000000000000000000, 319.00000000000000000000, 260.00000000000000000000, 0.00000000000000000000, 0.00000000000000000000, 3.00000000000000000000, 0.00000000000000000000, 0.00000000000000000000, 0.00000000000000000000, 0.00000000000000000000, 0.00000000000000000000, 0.00000000000000000000, 0.00000000000000000000, 0.00000000000000000000, 0.00000000000000000000, 0.00000000000000000000, 0.00000000000000000000, 4.00000000000000000000, 4.00000000000000000000
65.00000000000000000000, 0.00000000000000000000, 4344.61527837569250000000, 4825.12808713844240000000, 3943.58964715640600000000, 4786.66654961741190000000, 3998.97426118669140000000, 4667.69219355235510000000, 4302.56399735269770000000, 4449.74348093317800000000, 4380.51271339532100000000, 4168.20502627922910000000, 4423.07681491859600000000, 3773.33324106330790000000, 3951.79477516089260000000, 4356.41014988214190000000, 273.00000000000000000000, 1768.00000000000000000000, 1744.00000000000000000000, 0.00000000000000000000, 0.00000000000000000000, 319.00000000000000000000, 268.00000000000000000000, 0.00000000000000000000, 0.00000000000000000000, 3.00000000000000000000, 2.00000000000000000000, 0.00000000000000000000, 0.00000000000000000000, 0.00000000000000000000, 0.00000000000000000000, 0.00000000000000000000, 0.00000000000000000000, 0.00000000000000000000, 0.00000000000000000000, 0.00000000000000000000, 0.00000000000000000000, 4.00000000000000000000, 4.00000000000000000000
66.00000000000000000000, 0.00000000000000000000, 4357.94861138298260000000, 4837.94859964545320000000, 3953.84605716201440000000, 4792.82039562077630000000, 4008.71785069201910000000, 4656.92296304646610000000, 4295.89733084905220000000, 4455.89732693654240000000, 4390.25630290064960000000, 4175.89733378343500000000, 4435.89732742560680000000, 3779.48708706667280000000, 3958.46144166453810000000, 4366.66655988774980000000, 464.00000000000000000000, 1767.00000000000000000000, 1742.00000000000000000000, 0.00000000000000000000, 0.00000000000000000000, 319.00000000000000000000, 276.00000000000000000000, 4.00000000000000000000, 0.00000000000000000000, 3.00000000000000000000, 2.00000000000000000000, 0.00000000000000000000, 0.00000000000000000000, 0.00000000000000000000, 0.00000000000000000000, 0.00000000000000000000, 0.00000000000000000000, 0.00000000000000000000, 0.00000000000000000000, 0.00000000000000000000, 0.00000000000000000000, 4.00000000000000000000, 4.00000000000000000000
67.00000000000000000000, 0.00000000000000000000, 4378.97425189448040000000, 4851.28193265274420000000, 3964.61528766790340000000, 4801.02552362526330000000, 4017.94861969706650000000, 4656.92296304646610000000, 4284.61527984288300000000, 4456.41014743682260000000, 4398.46143090513580000000, 4189.74348729100620000000, 4453.33322443514040000000, 3792.82042007396380000000, 3968.20503116986630000000, 4378.97425189448040000000, 413.00000000000000000000, 1766.00000000000000000000, 1743.00000000000000000000, 0.00000000000000000000, 0.00000000000000000000, 319.00000000000000000000, 283.00000000000000000000, 4.00000000000000000000, 4.00000000000000000000, 3.00000000000000000000, 2.00000000000000000000, 0.00000000000000000000, 0.00000000000000000000, 0.00000000000000000000, 0.00000000000000000000, 0.00000000000000000000, 0.00000000000000000000, 0.00000000000000000000, 0.00000000000000000000, 0.00000000000000000000, 0.00000000000000000000, 4.00000000000000000000, 4.00000000000000000000
68.00000000000000000000, 0.00000000000000000000, 4380.51271339532100000000, 4848.20500965106200000000, 3963.07682616706190000000, 4795.89731862245940000000, 4012.82041469426260000000, 4663.07680904983140000000, 4290.25630534596800000000, 4461.02553193934640000000, 4403.58963590793970000000, 4200.51271779689520000000, 4454.35886543570180000000, 3800.51272757816970000000, 3974.35887717323110000000, 4379.48707239476060000000, 493.00000000000000000000, 1766.00000000000000000000, 1742.00000000000000000000, 0.00000000000000000000, 0.00000000000000000000, 319.00000000000000000000, 291.00000000000000000000, 4.00000000000000000000, 4.00000000000000000000, 3.00000000000000000000, 2.00000000000000000000, 4.00000000000000000000, 0.00000000000000000000, 0.00000000000000000000, 0.00000000000000000000, 0.00000000000000000000, 0.00000000000000000000, 0.00000000000000000000, 0.00000000000000000000, 0.00000000000000000000, 0.00000000000000000000, 4.00000000000000000000, 4.00000000000000000000
69.00000000000000000000, 0.00000000000000000000, 4366.66655988774980000000, 4842.05116364769670000000, 3958.97426216481880000000, 4791.28193411993560000000, 4006.66656869089730000000, 4666.15373205151350000000, 4305.12809985409970000000, 4471.28194194495520000000, 4402.05117440709910000000, 4199.99989729661500000000, 4448.71783993261670000000, 3794.35888157480490000000, 3968.20503116986630000000, 4375.38450839251710000000, 204.00000000000000000000, 1765.00000000000000000000, 1743.00000000000000000000, 0.00000000000000000000, 0.00000000000000000000, 319.00000000000000000000, 299.00000000000000000000, 4.00000000000000000000, 4.00000000000000000000, 3.00000000000000000000, 2.00000000000000000000, 4.00000000000000000000, 2.00000000000000000000, 0.00000000000000000000, 0.00000000000000000000, 0.00000000000000000000, 0.00000000000000000000, 0.00000000000000000000, 0.00000000000000000000, 0.00000000000000000000, 0.00000000000000000000, 4.00000000000000000000, 4.00000000000000000000
70.00000000000000000000, 0.00000000000000000000, 4354.35886788102020000000, 4835.38449714405120000000, 3952.82041616145350000000, 4787.69219061797230000000, 4004.10246618949530000000, 4666.15373205151350000000, 4308.71784335606300000000, 4473.84604444635720000000, 4401.53835390681890000000, 4191.28194879184780000000, 4443.07681442953250000000, 3778.46144606611190000000, 3956.41015966341640000000, 4364.10245738634790000000, 488.00000000000000000000, 1763.00000000000000000000, 1743.00000000000000000000, 0.00000000000000000000, 0.00000000000000000000, 319.00000000000000000000, 307.00000000000000000000, 4.00000000000000000000, 4.00000000000000000000, 3.00000000000000000000, 2.00000000000000000000, 4.00000000000000000000, 2.00000000000000000000, 4.00000000000000000000, 0.00000000000000000000, 0.00000000000000000000, 0.00000000000000000000, 0.00000000000000000000, 0.00000000000000000000, 0.00000000000000000000, 0.00000000000000000000, 4.00000000000000000000, 4.00000000000000000000
71.00000000000000000000, 0.00000000000000000000, 4344.10245787541130000000, 4826.66654863928400000000, 3942.56400615584520000000, 4782.05116511488810000000, 4002.56400468865420000000, 4660.51270654842940000000, 4288.20502334484630000000, 4447.17937843177510000000, 4386.15373889840610000000, 4190.76912829156750000000, 4435.89732742560680000000, 3768.20503606050350000000, 3954.87169816257530000000, 4354.35886788102020000000, 410.00000000000000000000, 1761.00000000000000000000, 1744.00000000000000000000, 0.00000000000000000000, 0.00000000000000000000, 319.00000000000000000000, 315.00000000000000000000, 4.00000000000000000000, 4.00000000000000000000, 3.00000000000000000000, 2.00000000000000000000, 4.00000000000000000000, 2.00000000000000000000, 4.00000000000000000000, 3.00000000000000000000, 0.00000000000000000000, 0.00000000000000000000, 0.00000000000000000000, 0.00000000000000000000, 0.00000000000000000000, 0.00000000000000000000, 4.00000000000000000000, 4.00000000000000000000
72.00000000000000000000, 0.00000000000000000000, 4334.87168887036390000000, 4827.69218963984530000000, 3938.97426265388230000000, 4789.23065211881390000000, 3998.46144068641070000000, 4657.43578354674630000000, 4283.07681834204230000000, 4428.20501992140000000000, 4366.15373938746960000000, 4181.02553878623890000000, 4426.15373792027820000000, 3769.23067706106440000000, 3956.41015966341640000000, 4356.41014988214190000000, 414.00000000000000000000, 1761.00000000000000000000, 1743.00000000000000000000, 0.00000000000000000000, 0.00000000000000000000, 319.00000000000000000000, 323.00000000000000000000, 4.00000000000000000000, 4.00000000000000000000, 3.00000000000000000000, 2.00000000000000000000, 4.00000000000000000000, 2.00000000000000000000, 4.00000000000000000000, 3.00000000000000000000, 4.00000000000000000000, 0.00000000000000000000, 0.00000000000000000000, 0.00000000000000000000, 0.00000000000000000000, 0.00000000000000000000, 4.00000000000000000000, 4.00000000000000000000
73.00000000000000000000, 0.00000000000000000000, 4339.99989387316870000000, 4837.43577914517300000000, 3946.66657015808870000000, 4796.41013912273960000000, 4001.53836368809330000000, 4663.58962955011160000000, 4307.69220235550260000000, 4443.07681442953250000000, 4371.79476489055470000000, 4162.56400077614400000000, 4426.15373792027820000000, 3773.33324106330790000000, 3955.38451866285550000000, 4362.05117538522610000000, 409.00000000000000000000, 1758.00000000000000000000, 1744.00000000000000000000, 0.00000000000000000000, 0.00000000000000000000, 319.00000000000000000000, 330.00000000000000000000, 4.00000000000000000000, 4.00000000000000000000, 3.00000000000000000000, 2.00000000000000000000, 4.00000000000000000000, 2.00000000000000000000, 4.00000000000000000000, 3.00000000000000000000, 4.00000000000000000000, 4.00000000000000000000, 0.00000000000000000000, 0.00000000000000000000, 0.00000000000000000000, 0.00000000000000000000, 4.00000000000000000000, 4.00000000000000000000
74.00000000000000000000, 0.00000000000000000000, 4352.82040638017860000000, 4842.05116364769670000000, 3952.82041616145350000000, 4788.20501111825250000000, 4012.30759419398190000000, 4667.17937305207400000000, 4311.28194585746500000000, 4444.61527593037320000000, 4383.07681589672300000000, 4156.41015477277960000000, 4438.97425042728900000000, 3773.33324106330790000000, 3953.84605716201440000000, 4361.02553438466570000000, 351.00000000000000000000, 1758.00000000000000000000, 1744.00000000000000000000, 0.00000000000000000000, 0.00000000000000000000, 319.00000000000000000000, 338.00000000000000000000, 4.00000000000000000000, 4.00000000000000000000, 3.00000000000000000000, 2.00000000000000000000, 4.00000000000000000000, 2.00000000000000000000, 4.00000000000000000000, 3.00000000000000000000, 4.00000000000000000000, 4.00000000000000000000, 0.00000000000000000000, 0.00000000000000000000, 4.00000000000000000000, 0.00000000000000000000, 4.00000000000000000000, 4.00000000000000000000
75.00000000000000000000, 0.00000000000000000000, 4357.94861138298260000000, 4844.61526614909870000000, 3949.23067265949070000000, 4785.64090861685050000000, 4014.87169669538390000000, 4665.64091155123330000000, 4280.51271584064030000000, 4433.84604542448510000000, 4380.51271339532100000000, 4165.12810327754600000000, 4442.05117342897120000000, 3769.74349756134460000000, 3953.84605716201440000000, 4361.02553438466570000000, 443.00000000000000000000, 1756.00000000000000000000, 1743.00000000000000000000, 0.00000000000000000000, 0.00000000000000000000, 319.00000000000000000000, 346.00000000000000000000, 4.00000000000000000000, 4.00000000000000000000, 3.00000000000000000000, 2.00000000000000000000, 4.00000000000000000000, 2.00000000000000000000, 4.00000000000000000000, 3.00000000000000000000, 4.00000000000000000000, 4.00000000000000000000, 0.00000000000000000000, 0.00000000000000000000, 4.00000000000000000000, 4.00000000000000000000, 4.00000000000000000000, 4.00000000000000000000
76.00000000000000000000, 0.00000000000000000000, 4355.89732938186170000000, 4844.10244564881850000000, 3945.12810865724760000000, 4790.76911361965450000000, 4011.28195319342100000000, 4662.05116804927000000000, 4267.17938283334930000000, 4441.02553242841080000000, 4383.07681589672300000000, 4177.43579528427650000000, 4432.82040442392370000000, 3768.20503606050350000000, 3957.43580066397730000000, 4368.71784188887160000000, 428.00000000000000000000, 1756.00000000000000000000, 1745.00000000000000000000, 0.00000000000000000000, 0.00000000000000000000, 319.00000000000000000000, 354.00000000000000000000, 4.00000000000000000000, 4.00000000000000000000, 3.00000000000000000000, 2.00000000000000000000, 4.00000000000000000000, 2.00000000000000000000, 4.00000000000000000000, 3.00000000000000000000, 4.00000000000000000000, 4.00000000000000000000, 4.00000000000000000000, 0.00000000000000000000, 4.00000000000000000000, 4.00000000000000000000, 4.00000000000000000000, 4.00000000000000000000
77.00000000000000000000, 0.00000000000000000000, 4343.07681687485090000000, 4833.84603564320970000000, 3941.02554465500410000000, 4786.15372911713080000000, 4006.15374819061710000000, 4658.97424504758780000000, 4281.02553634092060000000, 4452.82040393486020000000, 4389.74348240036850000000, 4180.51271828595870000000, 4425.12809691971780000000, 3766.15375405938180000000, 3957.94862116425790000000, 4369.23066238915180000000, 446.00000000000000000000, 1755.00000000000000000000, 1744.00000000000000000000, 0.00000000000000000000, 0.00000000000000000000, 319.00000000000000000000, 362.00000000000000000000, 4.00000000000000000000, 4.00000000000000000000, 3.00000000000000000000, 2.00000000000000000000, 4.00000000000000000000, 2.00000000000000000000, 4.00000000000000000000, 3.00000000000000000000, 4.00000000000000000000, 4.00000000000000000000, 4.00000000000000000000, 4.00000000000000000000, 4.00000000000000000000, 4.00000000000000000000, 4.00000000000000000000, 4.00000000000000000000
78.00000000000000000000, 0.00000000000000000000, 4334.87168887036390000000, 4832.82039464264930000000, 3939.99990365444320000000, 4784.61526761629010000000, 4001.53836368809330000000, 4658.97424504758780000000, 4279.99989534035920000000, 4455.38450643626220000000, 4390.25630290064960000000, 4175.89733378343500000000, 4427.69219942111980000000, 3765.12811305882090000000, 3953.33323666173420000000, 4361.02553438466570000000, 351.00000000000000000000, 1754.00000000000000000000, 1745.00000000000000000000, 0.00000000000000000000, 0.00000000000000000000, 319.00000000000000000000, 369.00000000000000000000, 4.00000000000000000000, 4.00000000000000000000, 3.00000000000000000000, 2.00000000000000000000, 4.00000000000000000000, 2.00000000000000000000, 4.00000000000000000000, 3.00000000000000000000, 4.00000000000000000000, 4.00000000000000000000, 4.00000000000000000000, 4.00000000000000000000, 4.00000000000000000000, 4.00000000000000000000, 4.00000000000000000000, 4.00000000000000000000
79.00000000000000000000, 0.00000000000000000000, 4344.61527837569250000000, 4842.56398414797700000000, 3945.12810865724760000000, 4791.79475462021580000000, 4002.05118418837360000000, 4661.53834754898980000000, 4270.76912633531170000000, 4459.99989093878590000000, 4393.84604640261200000000, 4178.46143628483700000000, 4433.33322492420390000000, 3768.20503606050350000000, 3955.38451866285550000000, 4359.48707288382410000000, 443.00000000000000000000, 1756.00000000000000000000, 1744.00000000000000000000, 0.00000000000000000000, 0.00000000000000000000, 319.00000000000000000000, 377.00000000000000000000, 4.00000000000000000000, 4.00000000000000000000, 3.00000000000000000000, 2.00000000000000000000, 4.00000000000000000000, 2.00000000000000000000, 4.00000000000000000000, 3.00000000000000000000, 4.00000000000000000000, 4.00000000000000000000, 4.00000000000000000000, 4.00000000000000000000, 4.00000000000000000000, 4.00000000000000000000, 4.00000000000000000000, 4.00000000000000000000
80.00000000000000000000, 0.00000000000000000000, 4349.74348337849640000000, 4837.94859964545320000000, 3947.17939065836890000000, 4785.64090861685050000000, 4005.64092769033640000000, 4663.58962955011160000000, 4278.46143383951860000000, 4458.46142943794440000000, 4395.38450790345360000000, 4186.15374378904290000000, 4434.35886592476530000000, 3767.69221556022330000000, 3957.43580066397730000000, 4363.07681638578740000000, 428.00000000000000000000, 1756.00000000000000000000, 1745.00000000000000000000, 0.00000000000000000000, 0.00000000000000000000, 319.00000000000000000000, 385.00000000000000000000, 4.00000000000000000000, 4.00000000000000000000, 3.00000000000000000000, 2.00000000000000000000, 4.00000000000000000000, 2.00000000000000000000, 4.00000000000000000000, 3.00000000000000000000, 4.00000000000000000000, 4.00000000000000000000, 4.00000000000000000000, 4.00000000000000000000, 4.00000000000000000000, 4.00000000000000000000, 4.00000000000000000000, 4.00000000000000000000
81.00000000000000000000, 0.00000000000000000000, 4341.02553487372920000000, 4831.79475364208790000000, 3942.05118565556500000000, 4777.94860111264460000000, 4007.69220969145820000000, 4664.10245005039180000000, 4284.10245934260270000000, 4447.69219893205630000000, 4390.76912340092990000000, 4180.51271828595870000000, 4429.74348142224150000000, 3766.66657455966240000000, 3948.71785215921050000000, 4357.94861138298260000000, 446.00000000000000000000, 1758.00000000000000000000, 1745.00000000000000000000, 0.00000000000000000000, 0.00000000000000000000, 319.00000000000000000000, 393.00000000000000000000, 4.00000000000000000000, 4.00000000000000000000, 3.00000000000000000000, 2.00000000000000000000, 4.00000000000000000000, 2.00000000000000000000, 4.00000000000000000000, 3.00000000000000000000, 4.00000000000000000000, 4.00000000000000000000, 4.00000000000000000000, 4.00000000000000000000, 4.00000000000000000000, 4.00000000000000000000, 4.00000000000000000000, 4.00000000000000000000
82.00000000000000000000, 0.00000000000000000000, 4342.56399637457070000000, 4844.61526614909870000000, 3942.56400615584520000000, 4785.12808811657030000000, 4011.79477369370170000000, 4666.66655255179380000000, 4273.84604933699480000000, 4450.76912193373850000000, 4393.33322590233180000000, 4175.38451328315480000000, 4429.74348142224150000000, 3768.71785656078420000000, 3944.61528815696690000000, 4346.66656037681420000000, 351.00000000000000000000, 1759.00000000000000000000, 1745.00000000000000000000, 0.00000000000000000000, 0.00000000000000000000, 319.00000000000000000000, 401.00000000000000000000, 4.00000000000000000000, 4.00000000000000000000, 3.00000000000000000000, 2.00000000000000000000, 4.00000000000000000000, 2.00000000000000000000, 4.00000000000000000000, 3.00000000000000000000, 4.00000000000000000000, 4.00000000000000000000, 4.00000000000000000000, 4.00000000000000000000, 4.00000000000000000000, 4.00000000000000000000, 4.00000000000000000000, 4.00000000000000000000
83.00000000000000000000, 0.00000000000000000000, 4351.28194487933800000000, 4850.76911215246400000000, 3951.28195466061240000000, 4790.25629311937430000000, 4015.89733769594480000000, 4663.58962955011160000000, 4263.58963933138600000000, 4456.41014743682260000000, 4395.89732840373380000000, 4183.58964128764090000000, 4439.48707092756920000000, 3771.28195906218620000000, 3952.82041616145350000000, 4348.20502187765490000000, 443.00000000000000000000, 1760.00000000000000000000, 1744.00000000000000000000, 0.00000000000000000000, 0.00000000000000000000, 319.00000000000000000000, 408.00000000000000000000, 4.00000000000000000000, 4.00000000000000000000, 3.00000000000000000000, 2.00000000000000000000, 4.00000000000000000000, 2.00000000000000000000, 4.00000000000000000000, 3.00000000000000000000, 4.00000000000000000000, 4.00000000000000000000, 4.00000000000000000000, 4.00000000000000000000, 4.00000000000000000000, 4.00000000000000000000, 4.00000000000000000000, 4.00000000000000000000
84.00000000000000000000, 0.00000000000000000000, 4354.87168838130040000000, 4845.12808664937890000000, 3957.94862116425790000000, 4793.33321612105740000000, 4019.99990169818830000000, 4658.97424504758780000000, 4264.61528033194740000000, 4458.46142943794440000000, 4398.46143090513580000000, 4186.66656428932400000000, 4444.61527593037320000000, 3776.41016406499010000000, 3961.02554416594010000000, 4367.17938038803090000000, 428.00000000000000000000, 1761.00000000000000000000, 1745.00000000000000000000, 0.00000000000000000000, 0.00000000000000000000, 319.00000000000000000000, 416.00000000000000000000, 4.00000000000000000000, 4.00000000000000000000, 3.00000000000000000000, 2.00000000000000000000, 4.00000000000000000000, 2.00000000000000000000, 4.00000000000000000000, 3.00000000000000000000, 4.00000000000000000000, 4.00000000000000000000, 4.00000000000000000000, 4.00000000000000000000, 4.00000000000000000000, 4.00000000000000000000, 4.00000000000000000000, 4.00000000000000000000
85.00000000000000000000, 0.00000000000000000000, 4354.87168838130040000000, 4850.25629165218290000000, 3957.94862116425790000000, 4799.48706212442180000000, 4023.07682469987090000000, 4665.64091155123330000000, 4278.97425433979880000000, 4470.25630094439480000000, 4409.23066141102480000000, 4187.69220528988440000000, 4436.41014792588700000000, 3781.02554856751390000000, 3955.38451866285550000000, 4379.48707239476060000000, 446.00000000000000000000, 1762.00000000000000000000, 1744.00000000000000000000, 0.00000000000000000000, 0.00000000000000000000, 319.00000000000000000000, 424.00000000000000000000, 4.00000000000000000000, 4.00000000000000000000, 3.00000000000000000000, 2.00000000000000000000, 4.00000000000000000000, 2.00000000000000000000, 4.00000000000000000000, 3.00000000000000000000, 4.00000000000000000000, 4.00000000000000000000, 4.00000000000000000000, 4.00000000000000000000, 4.00000000000000000000, 4.00000000000000000000, 4.00000000000000000000, 4.00000000000000000000
86.00000000000000000000, 0.00000000000000000000, 4343.07681687485090000000, 4845.12808664937890000000, 3948.20503165892980000000, 4791.79475462021580000000, 4010.76913269314080000000, 4669.74347555347690000000, 4291.79476684680960000000, 4476.92296744803930000000, 4406.66655890962280000000, 4178.97425678511720000000, 4419.48707141663270000000, 3769.23067706106440000000, 3940.51272415472390000000, 4362.56399588550630000000, 351.00000000000000000000, 1762.00000000000000000000, 1744.00000000000000000000, 0.00000000000000000000, 0.00000000000000000000, 319.00000000000000000000, 432.00000000000000000000, 4.00000000000000000000, 4.00000000000000000000, 3.00000000000000000000, 2.00000000000000000000, 4.00000000000000000000, 2.00000000000000000000, 4.00000000000000000000, 3.00000000000000000000, 4.00000000000000000000, 4.00000000000000000000, 4.00000000000000000000, 4.00000000000000000000, 4.00000000000000000000, 4.00000000000000000000, 4.00000000000000000000, 4.00000000000000000000
87.00000000000000000000, 0.00000000000000000000, 4328.20502236671840000000, 4834.35885614348990000000, 3939.99990365444320000000, 4780.51270361404660000000, 3998.46144068641070000000, 4659.48706554786800000000, 4275.38451083783550000000, 4461.53835243962750000000, 4394.87168740317340000000, 4169.23066727978950000000, 4414.87168691410900000000, 3756.92298505433430000000, 3936.41016015248030000000, 4345.64091937625290000000, 443.00000000000000000000, 1763.00000000000000000000, 1745.00000000000000000000, 0.00000000000000000000, 0.00000000000000000000, 319.00000000000000000000, 440.00000000000000000000, 4.00000000000000000000, 4.00000000000000000000, 3.00000000000000000000, 2.00000000000000000000, 4.00000000000000000000, 2.00000000000000000000, 4.00000000000000000000, 3.00000000000000000000, 4.00000000000000000000, 4.00000000000000000000, 4.00000000000000000000, 4.00000000000000000000, 4.00000000000000000000, 4.00000000000000000000, 4.00000000000000000000, 4.00000000000000000000
88.00000000000000000000, 0.00000000000000000000, 4332.82040686924300000000, 4840.51270214685520000000, 3941.02554465500410000000, 4789.74347261909410000000, 4008.71785069201910000000, 4661.02552704870960000000, 4258.46143432858210000000, 4439.48707092756920000000, 4389.74348240036850000000, 4177.43579528427650000000, 4425.64091741999800000000, 3765.64093355910150000000, 3946.66657015808870000000, 4353.84604738073990000000, 428.00000000000000000000, 1764.00000000000000000000, 1743.00000000000000000000, 0.00000000000000000000, 0.00000000000000000000, 319.00000000000000000000, 448.00000000000000000000, 4.00000000000000000000, 4.00000000000000000000, 3.00000000000000000000, 2.00000000000000000000, 4.00000000000000000000, 2.00000000000000000000, 4.00000000000000000000, 3.00000000000000000000, 4.00000000000000000000, 4.00000000000000000000, 4.00000000000000000000, 4.00000000000000000000, 4.00000000000000000000, 4.00000000000000000000, 4.00000000000000000000, 4.00000000000000000000
89.00000000000000000000, 0.00000000000000000000, 4344.10245787541130000000, 4848.20500965106200000000, 3944.61528815696690000000, 4797.43578012330000000000, 4018.46144019734720000000, 4671.28193705431750000000, 4272.82040833643350000000, 4433.33322492420390000000, 4387.17937989896650000000, 4191.79476929212800000000, 4432.30758392364350000000, 3782.05118956807470000000, 3953.33323666173420000000, 4366.15373938746960000000, 446.00000000000000000000, 1764.00000000000000000000, 1744.00000000000000000000, 0.00000000000000000000, 0.00000000000000000000, 319.00000000000000000000, 455.00000000000000000000, 4.00000000000000000000, 4.00000000000000000000, 3.00000000000000000000, 2.00000000000000000000, 4.00000000000000000000, 2.00000000000000000000, 4.00000000000000000000, 3.00000000000000000000, 4.00000000000000000000, 4.00000000000000000000, 4.00000000000000000000, 4.00000000000000000000, 4.00000000000000000000, 4.00000000000000000000, 4.00000000000000000000, 4.00000000000000000000
90.00000000000000000000, 0.00000000000000000000, 4347.17938087709440000000, 4847.17936865050070000000, 3949.74349315977130000000, 4791.28193411993560000000, 4015.89733769594480000000, 4666.15373205151350000000, 4288.20502334484630000000, 4454.87168593598200000000, 4399.48707190569710000000, 4195.38451279409130000000, 4438.97425042728900000000, 3790.25631757256130000000, 3954.87169816257530000000, 4376.41014939307840000000, 351.00000000000000000000, 1765.00000000000000000000, 1743.00000000000000000000, 0.00000000000000000000, 0.00000000000000000000, 319.00000000000000000000, 463.00000000000000000000, 4.00000000000000000000, 4.00000000000000000000, 3.00000000000000000000, 2.00000000000000000000, 4.00000000000000000000, 2.00000000000000000000, 4.00000000000000000000, 3.00000000000000000000, 4.00000000000000000000, 4.00000000000000000000, 4.00000000000000000000, 4.00000000000000000000, 4.00000000000000000000, 4.00000000000000000000, 4.00000000000000000000, 4.00000000000000000000
91.00000000000000000000, 0.00000000000000000000, 4351.28194487933800000000, 4848.71783015134220000000, 3953.84605716201440000000, 4792.30757512049600000000, 4012.30759419398190000000, 4661.02552704870960000000, 4290.25630534596800000000, 4480.51271095000270000000, 4419.99989191691380000000, 4192.30758979240820000000, 4448.20501943233650000000, 3790.25631757256130000000, 3957.43580066397730000000, 4385.12809789784480000000, 443.00000000000000000000, 1763.00000000000000000000, 1743.00000000000000000000, 0.00000000000000000000, 0.00000000000000000000, 319.00000000000000000000, 471.00000000000000000000, 4.00000000000000000000, 4.00000000000000000000, 3.00000000000000000000, 2.00000000000000000000, 4.00000000000000000000, 2.00000000000000000000, 4.00000000000000000000, 3.00000000000000000000, 4.00000000000000000000, 4.00000000000000000000, 4.00000000000000000000, 4.00000000000000000000, 4.00000000000000000000, 4.00000000000000000000, 4.00000000000000000000, 4.00000000000000000000
92.00000000000000000000, 0.00000000000000000000, 4352.30758587989840000000, 4851.28193265274420000000, 3948.71785215921050000000, 4797.43578012330000000000, 4005.12810719005620000000, 4666.66655255179380000000, 4288.71784384512650000000, 4464.61527544130970000000, 4404.10245640822090000000, 4182.56400028708050000000, 4439.48707092756920000000, 3781.02554856751390000000, 3949.23067265949070000000, 4373.84604689167550000000, 428.00000000000000000000, 1764.00000000000000000000, 1744.00000000000000000000, 0.00000000000000000000, 0.00000000000000000000, 319.00000000000000000000, 479.00000000000000000000, 4.00000000000000000000, 4.00000000000000000000, 3.00000000000000000000, 2.00000000000000000000, 4.00000000000000000000, 2.00000000000000000000, 4.00000000000000000000, 3.00000000000000000000, 4.00000000000000000000, 4.00000000000000000000, 4.00000000000000000000, 4.00000000000000000000, 4.00000000000000000000, 4.00000000000000000000, 4.00000000000000000000, 4.00000000000000000000
93.00000000000000000000, 0.00000000000000000000, 4342.56399637457070000000, 4848.20500965106200000000, 3941.53836515528430000000, 4792.30757512049600000000, 4005.12810719005620000000, 4665.12809105095310000000, 4276.92297233867700000000, 4427.69219942111980000000, 4368.20502138859140000000, 4172.30759028147170000000, 4427.69219942111980000000, 3772.30760006274700000000, 3941.53836515528430000000, 4360.51271388438540000000, 446.00000000000000000000, 1762.00000000000000000000, 1743.00000000000000000000, 0.00000000000000000000, 0.00000000000000000000, 319.00000000000000000000, 487.00000000000000000000, 4.00000000000000000000, 4.00000000000000000000, 3.00000000000000000000, 2.00000000000000000000, 4.00000000000000000000, 2.00000000000000000000, 4.00000000000000000000, 3.00000000000000000000, 4.00000000000000000000, 4.00000000000000000000, 4.00000000000000000000, 4.00000000000000000000, 4.00000000000000000000, 4.00000000000000000000, 4.00000000000000000000, 4.00000000000000000000
94.00000000000000000000, 0.00000000000000000000, 4332.30758636896190000000, 4845.64090714965910000000, 3940.51272415472390000000, 4785.12808811657030000000, 4009.74349169257990000000, 4658.46142454730760000000, 4259.99989582942360000000, 4419.48707141663270000000, 4364.10245738634790000000, 4168.20502627922910000000, 4430.25630192252170000000, 3767.17939505994260000000, 3943.58964715640600000000, 4364.61527788662810000000, 351.00000000000000000000, 1763.00000000000000000000, 1744.00000000000000000000, 0.00000000000000000000, 0.00000000000000000000, 319.00000000000000000000, 495.00000000000000000000, 4.00000000000000000000, 4.00000000000000000000, 3.00000000000000000000, 2.00000000000000000000, 4.00000000000000000000, 2.00000000000000000000, 4.00000000000000000000, 3.00000000000000000000, 4.00000000000000000000, 4.00000000000000000000, 4.00000000000000000000, 4.00000000000000000000, 4.00000000000000000000, 4.00000000000000000000, 4.00000000000000000000, 4.00000000000000000000
95.00000000000000000000, 0.00000000000000000000, 4328.71784286699950000000, 4840.51270214685520000000, 3936.92298065276050000000, 4781.02552411432680000000, 4003.07682518893440000000, 4658.97424504758780000000, 4263.58963933138600000000, 4434.87168642504550000000, 4377.43579039363890000000, 4164.10246227698550000000, 4428.71784042168020000000, 3762.56401055741890000000, 3943.58964715640600000000, 4369.74348288943290000000, 443.00000000000000000000, 1762.00000000000000000000, 1743.00000000000000000000, 0.00000000000000000000, 0.00000000000000000000, 319.00000000000000000000, 502.00000000000000000000, 4.00000000000000000000, 4.00000000000000000000, 3.00000000000000000000, 2.00000000000000000000, 4.00000000000000000000, 2.00000000000000000000, 4.00000000000000000000, 3.00000000000000000000, 4.00000000000000000000, 4.00000000000000000000, 4.00000000000000000000, 4.00000000000000000000, 4.00000000000000000000, 4.00000000000000000000, 4.00000000000000000000, 4.00000000000000000000
96.00000000000000000000, 0.00000000000000000000, 4338.46143237232720000000, 4841.02552264713540000000, 3938.97426265388230000000, 4784.61526761629010000000, 4001.02554318781270000000, 4662.05116804927000000000, 4275.89733133811660000000, 4451.28194243401870000000, 4387.17937989896650000000, 4171.79476978119150000000, 4428.20501992140000000000, 3772.30760006274700000000, 3946.15374965780800000000, 4377.43579039363890000000, 428.00000000000000000000, 1763.00000000000000000000, 1743.00000000000000000000, 0.00000000000000000000, 0.00000000000000000000, 319.00000000000000000000, 510.00000000000000000000, 4.00000000000000000000, 4.00000000000000000000, 3.00000000000000000000, 2.00000000000000000000, 4.00000000000000000000, 2.00000000000000000000, 4.00000000000000000000, 3.00000000000000000000, 4.00000000000000000000, 4.00000000000000000000, 4.00000000000000000000, 4.00000000000000000000, 4.00000000000000000000, 4.00000000000000000000, 4.00000000000000000000, 4.00000000000000000000
97.00000000000000000000, 0.00000000000000000000, 4349.23066287821620000000, 4852.30757365330460000000, 3947.17939065836890000000, 4793.84603662133760000000, 4014.87169669538390000000, 4667.17937305207400000000, 4270.76912633531170000000, 4457.94860893766420000000, 4391.79476440149030000000, 4188.20502579016470000000, 4434.87168642504550000000, 3785.12811256975740000000, 3949.23067265949070000000, 4383.07681589672300000000, 446.00000000000000000000, 1763.00000000000000000000, 1742.00000000000000000000, 0.00000000000000000000, 0.00000000000000000000, 319.00000000000000000000, 518.00000000000000000000, 4.00000000000000000000, 4.00000000000000000000, 3.00000000000000000000, 2.00000000000000000000, 4.00000000000000000000, 2.00000000000000000000, 4.00000000000000000000, 3.00000000000000000000, 4.00000000000000000000, 4.00000000000000000000, 4.00000000000000000000, 4.00000000000000000000, 4.00000000000000000000, 4.00000000000000000000, 4.00000000000000000000, 4.00000000000000000000
98.00000000000000000000, 0.00000000000000000000, 4344.61527837569250000000, 4851.79475315302440000000, 3943.07682665612580000000, 4791.28193411993560000000, 4017.43579919678630000000, 4669.23065505319570000000, 4264.10245983166710000000, 4460.51271143906620000000, 4395.38450790345360000000, 4188.71784629044580000000, 4431.79476342336330000000, 3776.41016406499010000000, 3944.10246765668670000000, 4372.82040589111510000000, 351.00000000000000000000, 1762.00000000000000000000, 1744.00000000000000000000, 0.00000000000000000000, 0.00000000000000000000, 319.00000000000000000000, 526.00000000000000000000, 4.00000000000000000000, 4.00000000000000000000, 3.00000000000000000000, 2.00000000000000000000, 4.00000000000000000000, 2.00000000000000000000, 4.00000000000000000000, 3.00000000000000000000, 4.00000000000000000000, 4.00000000000000000000, 4.00000000000000000000, 4.00000000000000000000, 4.00000000000000000000, 4.00000000000000000000, 4.00000000000000000000, 4.00000000000000000000
99.00000000000000000000, 0.00000000000000000000, 4332.30758636896190000000, 4841.53834314741650000000, 3933.84605765107840000000, 4781.53834461460700000000, 3999.99990218725180000000, 4663.07680904983140000000, 4265.12810083222760000000, 4459.48707043850570000000, 4399.48707190569710000000, 4179.99989778567850000000, 4420.51271241719410000000, 3762.05119005713870000000, 3936.41016015248030000000, 4357.43579088270230000000, 443.00000000000000000000, 1763.00000000000000000000, 1743.00000000000000000000, 0.00000000000000000000, 0.00000000000000000000, 319.00000000000000000000, 534.00000000000000000000, 4.00000000000000000000, 4.00000000000000000000, 3.00000000000000000000, 2.00000000000000000000, 4.00000000000000000000, 2.00000000000000000000, 4.00000000000000000000, 3.00000000000000000000, 4.00000000000000000000, 4.00000000000000000000, 4.00000000000000000000, 4.00000000000000000000, 4.00000000000000000000, 4.00000000000000000000, 4.00000000000000000000, 4.00000000000000000000
100.00000000000000000000, 0.00000000000000000000, 4328.20502236671840000000, 4842.05116364769670000000, 3936.41016015248030000000, 4784.10244711600990000000, 4000.51272268753250000000, 4662.56398854955020000000, 4259.99989582942360000000, 4448.20501943233650000000, 4395.38450790345360000000, 4179.99989778567850000000, 4420.51271241719410000000, 3763.07683105769960000000, 3937.43580115304120000000, 4354.87168838130040000000, 428.00000000000000000000, 1762.00000000000000000000, 1746.00000000000000000000, 0.00000000000000000000, 0.00000000000000000000, 319.00000000000000000000, 541.00000000000000000000, 4.00000000000000000000, 4.00000000000000000000, 3.00000000000000000000, 2.00000000000000000000, 4.00000000000000000000, 2.00000000000000000000, 4.00000000000000000000, 3.00000000000000000000, 4.00000000000000000000, 4.00000000000000000000, 4.00000000000000000000, 4.00000000000000000000, 4.00000000000000000000, 4.00000000000000000000, 4.00000000000000000000, 4.00000000000000000000
101.00000000000000000000, 0.00000000000000000000, 4337.43579137176680000000, 4850.25629165218290000000, 3944.10246765668670000000, 4797.43578012330000000000, 4015.89733769594480000000, 4666.15373205151350000000, 4262.56399833082560000000, 4444.61527593037320000000, 4389.74348240036850000000, 4191.28194879184780000000, 4436.41014792588700000000, 3770.76913856190550000000, 3944.61528815696690000000, 4362.56399588550630000000, 446.00000000000000000000, 1764.00000000000000000000, 1746.00000000000000000000, 0.00000000000000000000, 0.00000000000000000000, 319.00000000000000000000, 549.00000000000000000000, 4.00000000000000000000, 4.00000000000000000000, 3.00000000000000000000, 2.00000000000000000000, 4.00000000000000000000, 2.00000000000000000000, 4.00000000000000000000, 3.00000000000000000000, 4.00000000000000000000, 4.00000000000000000000, 4.00000000000000000000, 4.00000000000000000000, 4.00000000000000000000, 4.00000000000000000000, 4.00000000000000000000, 4.00000000000000000000
102.00000000000000000000, 0.00000000000000000000, 4345.64091937625290000000, 4848.20500965106200000000, 3944.10246765668670000000, 4797.94860062358110000000, 4003.07682518893440000000, 4663.07680904983140000000, 4286.15374134372450000000, 4463.07681394046810000000, 4396.41014890401400000000, 4193.33323079296950000000, 4446.15373743121470000000, 3772.82042056302730000000, 3945.64092915752780000000, 4366.15373938746960000000, 351.00000000000000000000, 1763.00000000000000000000, 1746.00000000000000000000, 0.00000000000000000000, 0.00000000000000000000, 319.00000000000000000000, 557.00000000000000000000, 4.00000000000000000000, 4.00000000000000000000, 3.00000000000000000000, 2.00000000000000000000, 4.00000000000000000000, 2.00000000000000000000, 4.00000000000000000000, 3.00000000000000000000, 4.00000000000000000000, 4.00000000000000000000, 4.00000000000000000000, 4.00000000000000000000, 4.00000000000000000000, 4.00000000000000000000, 4.00000000000000000000, 4.00000000000000000000
103.00000000000000000000, 0.00000000000000000000, 4342.05117587429050000000, 4841.02552264713540000000, 3938.46144215360210000000, 4781.53834461460700000000, 3992.30759468304590000000, 4658.46142454730760000000, 4290.76912584624820000000, 4470.25630094439480000000, 4404.10245640822090000000, 4187.17938478960420000000, 4437.94860942672770000000, 3771.79477956246640000000, 3940.51272415472390000000, 4362.56399588550630000000, 443.00000000000000000000, 1763.00000000000000000000, 1747.00000000000000000000, 0.00000000000000000000, 0.00000000000000000000, 319.00000000000000000000, 565.00000000000000000000, 4.00000000000000000000, 4.00000000000000000000, 3.00000000000000000000, 2.00000000000000000000, 4.00000000000000000000, 2.00000000000000000000, 4.00000000000000000000, 3.00000000000000000000, 4.00000000000000000000, 4.00000000000000000000, 4.00000000000000000000, 4.00000000000000000000, 4.00000000000000000000, 4.00000000000000000000, 4.00000000000000000000, 4.00000000000000000000
104.00000000000000000000, 0.00000000000000000000, 4336.92297087148560000000, 4845.12808664937890000000, 3939.99990365444320000000, 4775.38449861124260000000, 4017.43579919678630000000, 4662.56398854955020000000, 4279.99989534035920000000, 4458.97424993822550000000, 4400.51271290625750000000, 4186.15374378904290000000, 4429.74348142224150000000, 3770.76913856190550000000, 3942.56400615584520000000, 4368.20502138859140000000, 428.00000000000000000000, 1764.00000000000000000000, 1746.00000000000000000000, 0.00000000000000000000, 0.00000000000000000000, 319.00000000000000000000, 573.00000000000000000000, 4.00000000000000000000, 4.00000000000000000000, 3.00000000000000000000, 2.00000000000000000000, 4.00000000000000000000, 2.00000000000000000000, 4.00000000000000000000, 3.00000000000000000000, 4.00000000000000000000, 4.00000000000000000000, 4.00000000000000000000, 4.00000000000000000000, 4.00000000000000000000, 4.00000000000000000000, 4.00000000000000000000, 4.00000000000000000000
105.00000000000000000000, 0.00000000000000000000, 4334.35886837008370000000, 4844.61526614909870000000, 3937.94862165332140000000, 4783.07680611544860000000, 4029.23067070323580000000, 4669.74347555347690000000, 4297.94861285017400000000, 4457.43578843738400000000, 4394.87168740317340000000, 4185.64092328876270000000, 4428.20501992140000000000, 3764.10247205826000000000, 3941.02554465500410000000, 4370.25630338971310000000, 446.00000000000000000000, 1765.00000000000000000000, 1746.00000000000000000000, 0.00000000000000000000, 0.00000000000000000000, 319.00000000000000000000, 581.00000000000000000000, 4.00000000000000000000, 4.00000000000000000000, 3.00000000000000000000, 2.00000000000000000000, 4.00000000000000000000, 2.00000000000000000000, 4.00000000000000000000, 3.00000000000000000000, 4.00000000000000000000, 4.00000000000000000000, 4.00000000000000000000, 4.00000000000000000000, 4.00000000000000000000, 4.00000000000000000000, 4.00000000000000000000, 4.00000000000000000000
106.00000000000000000000, 0.00000000000000000000, 4326.66656086587770000000, 4831.28193314180770000000, 3928.71785264827390000000, 4783.58962661572880000000, 4005.12810719005620000000, 4667.69219355235510000000, 4306.66656135494120000000, 4455.89732693654240000000, 4390.25630290064960000000, 4181.53835928651920000000, 4427.17937892083960000000, 3758.46144655517580000000, 3933.84605765107840000000, 4354.35886788102020000000, 351.00000000000000000000, 1765.00000000000000000000, 1744.00000000000000000000, 0.00000000000000000000, 0.00000000000000000000, 319.00000000000000000000, 588.00000000000000000000, 4.00000000000000000000, 4.00000000000000000000, 3.00000000000000000000, 2.00000000000000000000, 4.00000000000000000000, 2.00000000000000000000, 4.00000000000000000000, 3.00000000000000000000, 4.00000000000000000000, 4.00000000000000000000, 4.00000000000000000000, 4.00000000000000000000, 4.00000000000000000000, 4.00000000000000000000, 4.00000000000000000000, 4.00000000000000000000
107.00000000000000000000, 0.00000000000000000000, 4324.10245836447580000000, 4832.30757414236900000000, 3930.76913464939570000000, 4779.99988311376640000000, 3997.94862018613050000000, 4659.48706554786800000000, 4277.94861333923840000000, 4438.97425042728900000000, 4382.05117489616260000000, 4184.61528228820230000000, 4429.74348142224150000000, 3764.10247205826000000000, 3937.94862165332140000000, 4350.76912437905680000000, 443.00000000000000000000, 1766.00000000000000000000, 1744.00000000000000000000, 0.00000000000000000000, 0.00000000000000000000, 319.00000000000000000000, 596.00000000000000000000, 4.00000000000000000000, 4.00000000000000000000, 3.00000000000000000000, 2.00000000000000000000, 4.00000000000000000000, 2.00000000000000000000, 4.00000000000000000000, 3.00000000000000000000, 4.00000000000000000000, 4.00000000000000000000, 4.00000000000000000000, 4.00000000000000000000, 4.00000000000000000000, 4.00000000000000000000, 4.00000000000000000000, 4.00000000000000000000
108.00000000000000000000, 0.00000000000000000000, 4333.84604786980340000000, 4847.69218915078090000000, 3941.53836515528430000000, 4781.53834461460700000000, 4011.79477369370170000000, 4657.94860404702650000000, 4264.10245983166710000000, 4427.69219942111980000000, 4372.82040589111510000000, 4186.15374378904290000000, 4433.33322492420390000000, 3768.20503606050350000000, 3941.02554465500410000000, 4367.69220088831120000000, 428.00000000000000000000, 1766.00000000000000000000, 1745.00000000000000000000, 0.00000000000000000000, 0.00000000000000000000, 319.00000000000000000000, 604.00000000000000000000, 4.00000000000000000000, 4.00000000000000000000, 3.00000000000000000000, 2.00000000000000000000, 4.00000000000000000000, 2.00000000000000000000, 4.00000000000000000000, 3.00000000000000000000, 4.00000000000000000000, 4.00000000000000000000, 4.00000000000000000000, 4.00000000000000000000, 4.00000000000000000000, 4.00000000000000000000, 4.00000000000000000000, 4.00000000000000000000
109.00000000000000000000, 0.00000000000000000000, 4338.97425287260740000000, 4849.23065065162250000000, 3944.10246765668670000000, 4787.69219061797230000000, 4009.74349169257990000000, 4661.02552704870960000000, 4276.92297233867700000000, 4424.10245591915650000000, 4364.61527788662810000000, 4173.33323128203300000000, 4426.66655842055840000000, 3757.94862605489520000000, 3932.30759615023680000000, 4371.28194439027360000000, 446.00000000000000000000, 1766.00000000000000000000, 1745.00000000000000000000, 0.00000000000000000000, 0.00000000000000000000, 319.00000000000000000000, 612.00000000000000000000, 4.00000000000000000000, 4.00000000000000000000, 3.00000000000000000000, 2.00000000000000000000, 4.00000000000000000000, 2.00000000000000000000, 4.00000000000000000000, 3.00000000000000000000, 4.00000000000000000000, 4.00000000000000000000, 4.00000000000000000000, 4.00000000000000000000, 4.00000000000000000000, 4.00000000000000000000, 4.00000000000000000000, 4.00000000000000000000
110.00000000000000000000, 0.00000000000000000000, 4334.35886837008370000000, 4843.07680464825720000000, 3937.43580115304120000000, 4790.25629311937430000000, 3999.99990218725180000000, 4664.10245005039180000000, 4283.58963884232250000000, 4423.58963541887620000000, 4366.66655988774980000000, 4167.17938527866770000000, 4423.07681491859600000000, 3751.28195955124970000000, 3929.23067314855460000000, 4361.53835488494590000000, 351.00000000000000000000, 1765.00000000000000000000, 1745.00000000000000000000, 0.00000000000000000000, 0.00000000000000000000, 319.00000000000000000000, 620.00000000000000000000, 4.00000000000000000000, 4.00000000000000000000, 3.00000000000000000000, 2.00000000000000000000, 4.00000000000000000000, 2.00000000000000000000, 4.00000000000000000000, 3.00000000000000000000, 4.00000000000000000000, 4.00000000000000000000, 4.00000000000000000000, 4.00000000000000000000, 4.00000000000000000000, 4.00000000000000000000, 4.00000000000000000000, 4.00000000000000000000
111.00000000000000000000, 0.00000000000000000000, 4335.38450937064500000000, 4846.15372764994030000000, 3933.84605765107840000000, 4781.53834461460700000000, 4003.58964568921510000000, 4665.64091155123330000000, 4289.74348484568780000000, 4440.51271192813060000000, 4379.99989289504080000000, 4174.35887228259340000000, 4428.20501992140000000000, 3761.02554905657780000000, 3930.76913464939570000000, 4361.02553438466570000000, 443.00000000000000000000, 1765.00000000000000000000, 1744.00000000000000000000, 0.00000000000000000000, 0.00000000000000000000, 319.00000000000000000000, 627.00000000000000000000, 4.00000000000000000000, 4.00000000000000000000, 3.00000000000000000000, 2.00000000000000000000, 4.00000000000000000000, 2.00000000000000000000, 4.00000000000000000000, 3.00000000000000000000, 4.00000000000000000000, 4.00000000000000000000, 4.00000000000000000000, 4.00000000000000000000, 4.00000000000000000000, 4.00000000000000000000, 4.00000000000000000000, 4.00000000000000000000
112.00000000000000000000, 0.00000000000000000000, 4340.51271437344890000000, 4847.69218915078090000000, 3931.79477564995660000000, 4778.46142161292480000000, 4009.23067119229930000000, 4662.56398854955020000000, 4296.41015134933330000000, 4456.92296793710370000000, 4391.28194390121010000000, 4174.35887228259340000000, 4427.69219942111980000000, 3764.61529255854070000000, 3927.17939114743290000000, 4367.17938038803090000000, 428.00000000000000000000, 1764.00000000000000000000, 1744.00000000000000000000, 0.00000000000000000000, 0.00000000000000000000, 319.00000000000000000000, 635.00000000000000000000, 4.00000000000000000000, 4.00000000000000000000, 3.00000000000000000000, 2.00000000000000000000, 4.00000000000000000000, 2.00000000000000000000, 4.00000000000000000000, 3.00000000000000000000, 4.00000000000000000000, 4.00000000000000000000, 4.00000000000000000000, 4.00000000000000000000, 4.00000000000000000000, 4.00000000000000000000, 4.00000000000000000000, 4.00000000000000000000
113.00000000000000000000, 0.00000000000000000000, 4336.92297087148560000000, 4843.07680464825720000000, 3932.82041665051750000000, 4784.61526761629010000000, 4002.56400468865420000000, 4657.94860404702650000000, 4294.87168984849180000000, 4447.69219893205630000000, 4388.20502089952790000000, 4169.23066727978950000000, 4421.02553291747430000000, 3756.92298505433430000000, 3928.20503214799370000000, 4367.17938038803090000000, 446.00000000000000000000, 1765.00000000000000000000, 1745.00000000000000000000, 0.00000000000000000000, 0.00000000000000000000, 319.00000000000000000000, 643.00000000000000000000, 4.00000000000000000000, 4.00000000000000000000, 3.00000000000000000000, 2.00000000000000000000, 4.00000000000000000000, 2.00000000000000000000, 4.00000000000000000000, 3.00000000000000000000, 4.00000000000000000000, 4.00000000000000000000, 4.00000000000000000000, 4.00000000000000000000, 4.00000000000000000000, 4.00000000000000000000, 4.00000000000000000000, 4.00000000000000000000
114.00000000000000000000, 0.00000000000000000000, 4329.23066336727970000000, 4839.99988164657500000000, 3936.92298065276050000000, 4782.56398561516830000000, 3998.46144068641070000000, 4659.99988604814830000000, 4290.76912584624820000000, 4441.02553242841080000000, 4384.10245689728440000000, 4175.89733378343500000000, 4422.56399441831580000000, 3754.35888255293230000000, 3928.71785264827390000000, 4361.02553438466570000000, 351.00000000000000000000, 1764.00000000000000000000, 1744.00000000000000000000, 0.00000000000000000000, 0.00000000000000000000, 319.00000000000000000000, 651.00000000000000000000, 4.00000000000000000000, 4.00000000000000000000, 3.00000000000000000000, 2.00000000000000000000, 4.00000000000000000000, 2.00000000000000000000, 4.00000000000000000000, 3.00000000000000000000, 4.00000000000000000000, 4.00000000000000000000, 4.00000000000000000000, 4.00000000000000000000, 4.00000000000000000000, 4.00000000000000000000, 4.00000000000000000000, 4.00000000000000000000
115.00000000000000000000, 0.00000000000000000000, 4330.76912486812130000000, 4843.07680464825720000000, 3933.84605765107840000000, 4778.97424211320500000000, 4004.10246618949530000000, 4661.53834754898980000000, 4283.07681834204230000000, 4445.64091693093450000000, 4384.10245689728440000000, 4182.05117978680030000000, 4427.69219942111980000000, 3758.97426705545600000000, 3925.64092964659180000000, 4355.38450888158060000000, 443.00000000000000000000, 1765.00000000000000000000, 1745.00000000000000000000, 0.00000000000000000000, 0.00000000000000000000, 319.00000000000000000000, 659.00000000000000000000, 4.00000000000000000000, 4.00000000000000000000, 3.00000000000000000000, 2.00000000000000000000, 4.00000000000000000000, 2.00000000000000000000, 4.00000000000000000000, 3.00000000000000000000, 4.00000000000000000000, 4.00000000000000000000, 4.00000000000000000000, 4.00000000000000000000, 4.00000000000000000000, 4.00000000000000000000, 4.00000000000000000000, 4.00000000000000000000
116.00000000000000000000, 0.00000000000000000000, 4335.38450937064500000000, 4845.12808664937890000000, 3928.71785264827390000000, 4785.12808811657030000000, 4002.05118418837360000000, 4657.94860404702650000000, 4278.97425433979880000000, 4442.05117342897120000000, 4375.89732889279730000000, 4172.82041078175280000000, 4424.10245591915650000000, 3762.56401055741890000000, 3925.64092964659180000000, 4354.87168838130040000000, 428.00000000000000000000, 1764.00000000000000000000, 1744.00000000000000000000, 0.00000000000000000000, 0.00000000000000000000, 319.00000000000000000000, 667.00000000000000000000, 4.00000000000000000000, 4.00000000000000000000, 3.00000000000000000000, 2.00000000000000000000, 4.00000000000000000000, 2.00000000000000000000, 4.00000000000000000000, 3.00000000000000000000, 4.00000000000000000000, 4.00000000000000000000, 4.00000000000000000000, 4.00000000000000000000, 4.00000000000000000000, 4.00000000000000000000, 4.00000000000000000000, 4.00000000000000000000
117.00000000000000000000, 0.00000000000000000000, 4327.17938136615790000000, 4834.35885614348990000000, 3930.25631414911550000000, 4779.48706261348620000000, 3984.61528717883950000000, 4655.89732204590560000000, 4291.28194634652850000000, 4439.99989142784940000000, 4370.76912388999340000000, 4159.99989827474200000000, 4408.71784091074460000000, 3752.30760055181050000000, 3917.43580164210470000000, 4349.23066287821620000000, 446.00000000000000000000, 1766.00000000000000000000, 1746.00000000000000000000, 0.00000000000000000000, 0.00000000000000000000, 319.00000000000000000000, 674.00000000000000000000, 4.00000000000000000000, 4.00000000000000000000, 3.00000000000000000000, 2.00000000000000000000, 4.00000000000000000000, 2.00000000000000000000, 4.00000000000000000000, 3.00000000000000000000, 4.00000000000000000000, 4.00000000000000000000, 4.00000000000000000000, 4.00000000000000000000, 4.00000000000000000000, 4.00000000000000000000, 4.00000000000000000000, 4.00000000000000000000
118.00000000000000000000, 0.00000000000000000000, 4324.61527886475600000000, 4832.82039464264930000000, 3939.48708315416300000000, 4773.84603711040110000000, 3983.07682567799840000000, 4658.97424504758780000000, 4295.89733084905220000000, 4442.56399392925140000000, 4374.87168789223690000000, 4162.56400077614400000000, 4409.74348191130500000000, 3750.76913905096940000000, 3913.84605814014180000000, 4346.15373987653310000000, 351.00000000000000000000, 1766.00000000000000000000, 1744.00000000000000000000, 0.00000000000000000000, 0.00000000000000000000, 319.00000000000000000000, 682.00000000000000000000, 4.00000000000000000000, 4.00000000000000000000, 3.00000000000000000000, 2.00000000000000000000, 4.00000000000000000000, 2.00000000000000000000, 4.00000000000000000000, 3.00000000000000000000, 4.00000000000000000000, 4.00000000000000000000, 4.00000000000000000000, 4.00000000000000000000, 4.00000000000000000000, 4.00000000000000000000, 4.00000000000000000000, 4.00000000000000000000
119.00000000000000000000, 0.00000000000000000000, 4336.92297087148560000000, 4846.15372764994030000000, 3946.15374965780800000000, 4783.58962661572880000000, 4005.12810719005620000000, 4661.02552704870960000000, 4294.87168984849180000000, 4448.20501943233650000000, 4387.17937989896650000000, 4171.79476978119150000000, 4428.71784042168020000000, 3764.10247205826000000000, 3926.15375014687200000000, 4356.41014988214190000000, 443.00000000000000000000, 1765.00000000000000000000, 1746.00000000000000000000, 0.00000000000000000000, 0.00000000000000000000, 319.00000000000000000000, 690.00000000000000000000, 4.00000000000000000000, 4.00000000000000000000, 3.00000000000000000000, 2.00000000000000000000, 4.00000000000000000000, 2.00000000000000000000, 4.00000000000000000000, 3.00000000000000000000, 4.00000000000000000000, 4.00000000000000000000, 4.00000000000000000000, 4.00000000000000000000, 4.00000000000000000000, 4.00000000000000000000, 4.00000000000000000000, 4.00000000000000000000
120.00000000000000000000, 0.00000000000000000000, 4338.46143237232720000000, 4847.17936865050070000000, 3941.53836515528430000000, 4783.07680611544860000000, 4008.71785069201910000000, 4661.02552704870960000000, 4306.66656135494120000000, 4456.92296793710370000000, 4394.35886690289230000000, 4169.74348778006970000000, 4432.30758392364350000000, 3769.23067706106440000000, 3930.76913464939570000000, 4355.89732938186170000000, 428.00000000000000000000, 1767.00000000000000000000, 1744.00000000000000000000, 0.00000000000000000000, 0.00000000000000000000, 319.00000000000000000000, 698.00000000000000000000, 4.00000000000000000000, 4.00000000000000000000, 3.00000000000000000000, 2.00000000000000000000, 4.00000000000000000000, 2.00000000000000000000, 4.00000000000000000000, 3.00000000000000000000, 4.00000000000000000000, 4.00000000000000000000, 4.00000000000000000000, 4.00000000000000000000, 4.00000000000000000000, 4.00000000000000000000, 4.00000000000000000000, 4.00000000000000000000
121.00000000000000000000, 0.00000000000000000000, 4330.76912486812130000000, 4840.51270214685520000000, 3934.35887815135860000000, 4781.02552411432680000000, 3994.87169718444780000000, 4662.56398854955020000000, 4306.15374085466100000000, 4449.74348093317800000000, 4383.07681589672300000000, 4166.15374427810730000000, 4424.10245591915650000000, 3765.12811305882090000000, 3924.61528864603090000000, 4348.20502187765490000000, 446.00000000000000000000, 1766.00000000000000000000, 1744.00000000000000000000, 0.00000000000000000000, 0.00000000000000000000, 319.00000000000000000000, 706.00000000000000000000, 4.00000000000000000000, 4.00000000000000000000, 3.00000000000000000000, 2.00000000000000000000, 4.00000000000000000000, 2.00000000000000000000, 4.00000000000000000000, 3.00000000000000000000, 4.00000000000000000000, 4.00000000000000000000, 4.00000000000000000000, 4.00000000000000000000, 4.00000000000000000000, 4.00000000000000000000, 4.00000000000000000000, 4.00000000000000000000
122.00000000000000000000, 0.00000000000000000000, 4334.35886837008370000000, 4845.64090714965910000000, 3936.41016015248030000000, 4791.28193411993560000000, 3997.94862018613050000000, 4663.58962955011160000000, 4290.76912584624820000000, 4434.35886592476530000000, 4374.87168789223690000000, 4177.43579528427650000000, 4429.23066092196130000000, 3767.69221556022330000000, 3927.69221164771310000000, 4358.97425238354390000000, 351.00000000000000000000, 1767.00000000000000000000, 1745.00000000000000000000, 0.00000000000000000000, 0.00000000000000000000, 319.00000000000000000000, 713.00000000000000000000, 4.00000000000000000000, 4.00000000000000000000, 3.00000000000000000000, 2.00000000000000000000, 4.00000000000000000000, 2.00000000000000000000, 4.00000000000000000000, 3.00000000000000000000, 4.00000000000000000000, 4.00000000000000000000, 4.00000000000000000000, 4.00000000000000000000, 4.00000000000000000000, 4.00000000000000000000, 4.00000000000000000000, 4.00000000000000000000
123.00000000000000000000, 0.00000000000000000000, 4334.87168887036390000000, 4846.15372764994030000000, 3941.02554465500410000000, 4786.66654961741190000000, 4005.64092769033640000000, 4662.05116804927000000000, 4295.38451034877200000000, 4442.56399392925140000000, 4381.53835439588240000000, 4182.05117978680030000000, 4434.87168642504550000000, 3767.17939505994260000000, 3931.79477564995660000000, 4366.66655988774980000000, 443.00000000000000000000, 1766.00000000000000000000, 1744.00000000000000000000, 0.00000000000000000000, 0.00000000000000000000, 319.00000000000000000000, 721.00000000000000000000, 4.00000000000000000000, 4.00000000000000000000, 3.00000000000000000000, 2.00000000000000000000, 4.00000000000000000000, 2.00000000000000000000, 4.00000000000000000000, 3.00000000000000000000, 4.00000000000000000000, 4.00000000000000000000, 4.00000000000000000000, 4.00000000000000000000, 4.00000000000000000000, 4.00000000000000000000, 4.00000000000000000000, 4.00000000000000000000
124.00000000000000000000, 0.00000000000000000000, 4326.15374036559750000000, 4841.53834314741650000000, 3938.46144215360210000000, 4773.33321661012090000000, 4000.51272268753250000000, 4657.94860404702650000000, 4310.25630485690450000000, 4462.56399344018790000000, 4386.15373889840610000000, 4169.74348778006970000000, 4424.10245591915650000000, 3759.48708755573630000000, 3925.12810914631110000000, 4357.43579088270230000000, 428.00000000000000000000, 1766.00000000000000000000, 1743.00000000000000000000, 0.00000000000000000000, 0.00000000000000000000, 319.00000000000000000000, 729.00000000000000000000, 4.00000000000000000000, 4.00000000000000000000, 3.00000000000000000000, 2.00000000000000000000, 4.00000000000000000000, 2.00000000000000000000, 4.00000000000000000000, 3.00000000000000000000, 4.00000000000000000000, 4.00000000000000000000, 4.00000000000000000000, 4.00000000000000000000, 4.00000000000000000000, 4.00000000000000000000, 4.00000000000000000000, 4.00000000000000000000
125.00000000000000000000, 0.00000000000000000000, 4337.94861187204700000000, 4850.25629165218290000000, 3940.51272415472390000000, 4782.05116511488810000000, 4005.64092769033640000000, 4657.43578354674630000000, 4294.35886934821160000000, 4459.48707043850570000000, 4385.64091839812590000000, 4171.79476978119150000000, 4430.25630192252170000000, 3766.66657455966240000000, 3927.17939114743290000000, 4365.64091888718940000000, 446.00000000000000000000, 1765.00000000000000000000, 1742.00000000000000000000, 0.00000000000000000000, 0.00000000000000000000, 319.00000000000000000000, 737.00000000000000000000, 4.00000000000000000000, 4.00000000000000000000, 3.00000000000000000000, 2.00000000000000000000, 4.00000000000000000000, 2.00000000000000000000, 4.00000000000000000000, 3.00000000000000000000, 4.00000000000000000000, 4.00000000000000000000, 4.00000000000000000000, 4.00000000000000000000, 4.00000000000000000000, 4.00000000000000000000, 4.00000000000000000000, 4.00000000000000000000
126.00000000000000000000, 0.00000000000000000000, 4348.71784237793510000000, 4854.35885565442640000000, 3942.05118565556500000000, 4786.66654961741190000000, 4010.76913269314080000000, 4662.56398854955020000000, 4277.94861333923840000000, 4437.43578892644750000000, 4379.99989289504080000000, 4176.41015428371520000000, 4443.07681442953250000000, 3773.33324106330790000000, 3929.74349364883480000000, 4377.43579039363890000000, 351.00000000000000000000, 1766.00000000000000000000, 1743.00000000000000000000, 0.00000000000000000000, 0.00000000000000000000, 319.00000000000000000000, 745.00000000000000000000, 4.00000000000000000000, 4.00000000000000000000, 3.00000000000000000000, 2.00000000000000000000, 4.00000000000000000000, 2.00000000000000000000, 4.00000000000000000000, 3.00000000000000000000, 4.00000000000000000000, 4.00000000000000000000, 4.00000000000000000000, 4.00000000000000000000, 4.00000000000000000000, 4.00000000000000000000, 4.00000000000000000000, 4.00000000000000000000
127.00000000000000000000, 0.00000000000000000000, 4334.87168887036390000000, 4844.61526614909870000000, 3936.92298065276050000000, 4778.46142161292480000000, 3996.92297918556960000000, 4665.12809105095310000000, 4288.71784384512650000000, 4424.10245591915650000000, 4363.58963688606760000000, 4159.99989827474200000000, 4430.25630192252170000000, 3763.58965155797980000000, 3923.07682714518930000000, 4364.61527788662810000000, 443.00000000000000000000, 1765.00000000000000000000, 1743.00000000000000000000, 0.00000000000000000000, 0.00000000000000000000, 319.00000000000000000000, 753.00000000000000000000, 4.00000000000000000000, 4.00000000000000000000, 3.00000000000000000000, 2.00000000000000000000, 4.00000000000000000000, 2.00000000000000000000, 4.00000000000000000000, 3.00000000000000000000, 4.00000000000000000000, 4.00000000000000000000, 4.00000000000000000000, 4.00000000000000000000, 4.00000000000000000000, 4.00000000000000000000, 4.00000000000000000000, 4.00000000000000000000
128.00000000000000000000, 0.00000000000000000000, 4330.25630436784010000000, 4839.99988164657500000000, 3934.87169865163920000000, 4778.46142161292480000000, 3982.05118467743750000000, 4657.43578354674630000000, 4284.61527984288300000000, 4434.87168642504550000000, 4363.58963688606760000000, 4155.89733427249850000000, 4419.48707141663270000000, 3761.02554905657780000000, 3921.02554514406760000000, 4358.97425238354390000000, 428.00000000000000000000, 1765.00000000000000000000, 1745.00000000000000000000, 0.00000000000000000000, 0.00000000000000000000, 319.00000000000000000000, 760.00000000000000000000, 4.00000000000000000000, 4.00000000000000000000, 4.00000000000000000000, 2.00000000000000000000, 4.00000000000000000000, 2.00000000000000000000, 4.00000000000000000000, 3.00000000000000000000, 4.00000000000000000000, 4.00000000000000000000, 4.00000000000000000000, 4.00000000000000000000, 4.00000000000000000000, 4.00000000000000000000, 4.00000000000000000000, 4.00000000000000000000
0.00000000000000000000, 0.00000000000000000000, 4335.89732987092520000000, 4842.05116364769670000000, 3936.41016015248030000000, 4774.87167811096150000000, 3985.64092817940040000000, 4652.30757854394230000000, 4269.23066483447110000000, 4448.71783993261670000000, 4382.56399539644280000000, 4170.76912878063100000000, 4427.69219942111980000000, 3766.66657455966240000000, 3922.05118614462840000000, 4366.15373938746960000000, 379.00000000000000000000, 1766.00000000000000000000, 1744.00000000000000000000, 0.00000000000000000000, 0.00000000000000000000, 319.00000000000000000000, 768.00000000000000000000, 4.00000000000000000000, 4.00000000000000000000, 3.00000000000000000000, 2.00000000000000000000, 4.00000000000000000000, 2.00000000000000000000, 4.00000000000000000000, 3.00000000000000000000, 4.00000000000000000000, 4.00000000000000000000, 4.00000000000000000000, 4.00000000000000000000, 4.00000000000000000000, 4.00000000000000000000, 4.00000000000000000000, 4.00000000000000000000
1.00000000000000000000, 0.00000000000000000000, 4333.84604786980340000000, 4844.61526614909870000000, 3936.92298065276050000000, 4774.35885761068130000000, 4002.56400468865420000000, 4656.92296304646610000000, 4281.53835684120080000000, 4447.69219893205630000000, 4386.15373889840610000000, 4170.76912878063100000000, 4430.76912242280200000000, 3769.23067706106440000000, 3916.41016064154380000000, 4361.02553438466570000000, 273.00000000000000000000, 1765.00000000000000000000, 1745.00000000000000000000, 0.00000000000000000000, 0.00000000000000000000, 319.00000000000000000000, 776.00000000000000000000, 4.00000000000000000000, 4.00000000000000000000, 3.00000000000000000000, 2.00000000000000000000, 4.00000000000000000000, 2.00000000000000000000, 4.00000000000000000000, 3.00000000000000000000, 4.00000000000000000000, 4.00000000000000000000, 4.00000000000000000000, 4.00000000000000000000, 4.00000000000000000000, 4.00000000000000000000, 4.00000000000000000000, 4.00000000000000000000
2.00000000000000000000, 0.00000000000000000000, 4334.35886837008370000000, 4848.20500965106200000000, 3941.53836515528430000000, 4788.71783161853360000000, 4009.74349169257990000000, 4660.51270654842940000000, 4297.43579234989370000000, 4442.56399392925140000000, 4371.79476489055470000000, 4163.58964177670530000000, 4424.61527641943760000000, 3768.71785656078420000000, 3912.30759663930080000000, 4354.35886788102020000000, 464.00000000000000000000, 1765.00000000000000000000, 1745.00000000000000000000, 0.00000000000000000000, 0.00000000000000000000, 319.00000000000000000000, 784.00000000000000000000, 4.00000000000000000000, 4.00000000000000000000, 3.00000000000000000000, 2.00000000000000000000, 4.00000000000000000000, 2.00000000000000000000, 4.00000000000000000000, 3.00000000000000000000, 4.00000000000000000000, 4.00000000000000000000, 4.00000000000000000000, 4.00000000000000000000, 4.00000000000000000000, 4.00000000000000000000, 4.00000000000000000000, 4.00000000000000000000
3.00000000000000000000, 0.00000000000000000000, 4336.41015037120540000000, 4848.20500965106200000000, 3945.64092915752780000000, 4784.61526761629010000000, 4005.12810719005620000000, 4661.02552704870960000000, 4296.92297184961350000000, 4453.84604493542070000000, 4375.38450839251710000000, 4166.66656477838750000000, 4428.20501992140000000000, 3770.25631806162530000000, 3914.87169914070270000000, 4358.46143188326370000000, 413.00000000000000000000, 1763.00000000000000000000, 1746.00000000000000000000, 0.00000000000000000000, 0.00000000000000000000, 319.00000000000000000000, 792.00000000000000000000, 4.00000000000000000000, 4.00000000000000000000, 3.00000000000000000000, 2.00000000000000000000, 4.00000000000000000000, 2.00000000000000000000, 4.00000000000000000000, 3.00000000000000000000, 4.00000000000000000000, 4.00000000000000000000, 4.00000000000000000000, 4.00000000000000000000, 4.00000000000000000000, 4.00000000000000000000, 4.00000000000000000000, 4.00000000000000000000
4.00000000000000000000, 0.00000000000000000000, 4328.71784286699950000000, 4844.10244564881850000000, 3939.48708315416300000000, 4769.23065260787730000000, 4003.58964568921510000000, 4662.56398854955020000000, 4300.51271535157590000000, 4478.97424944916110000000, 4406.15373840934260000000, 4173.33323128203300000000, 4432.82040442392370000000, 3777.43580506555100000000, 3914.35887864042250000000, 4368.20502138859140000000, 493.00000000000000000000, 1765.00000000000000000000, 1746.00000000000000000000, 0.00000000000000000000, 0.00000000000000000000, 319.00000000000000000000, 799.00000000000000000000, 4.00000000000000000000, 4.00000000000000000000, 3.00000000000000000000, 2.00000000000000000000, 4.00000000000000000000, 2.00000000000000000000, 4.00000000000000000000, 3.00000000000000000000, 4.00000000000000000000, 4.00000000000000000000, 4.00000000000000000000, 4.00000000000000000000, 4.00000000000000000000, 4.00000000000000000000, 4.00000000000000000000, 4.00000000000000000000
5.00000000000000000000, 0.00000000000000000000, 4321.53835586307380000000, 4844.10244564881850000000, 3931.79477564995660000000, 4773.84603711040110000000, 3998.97426118669140000000, 4662.05116804927000000000, 4298.97425385073530000000, 4464.10245494102950000000, 4400.51271290625750000000, 4170.25630828035080000000, 4420.51271241719410000000, 3774.87170256414900000000, 3910.76913513845970000000, 4364.10245738634790000000, 204.00000000000000000000, 1764.00000000000000000000, 1745.00000000000000000000, 0.00000000000000000000, 0.00000000000000000000, 319.00000000000000000000, 807.00000000000000000000, 4.00000000000000000000, 4.00000000000000000000, 3.00000000000000000000, 2.00000000000000000000, 4.00000000000000000000, 2.00000000000000000000, 4.00000000000000000000, 3.00000000000000000000, 4.00000000000000000000, 4.00000000000000000000, 4.00000000000000000000, 4.00000000000000000000, 4.00000000000000000000, 4.00000000000000000000, 4.00000000000000000000, 4.00000000000000000000
6.00000000000000000000, 0.00000000000000000000, 4319.99989436223220000000, 4843.58962514853740000000, 3931.28195514967590000000, 4775.89731911152280000000, 3988.20503068080230000000, 4662.56398854955020000000, 4291.28194634652850000000, 4423.07681491859600000000, 4355.89732938186170000000, 4157.94861627362020000000, 4408.71784091074460000000, 3757.43580555461490000000, 3907.17939163649630000000, 4342.56399637457070000000, 488.00000000000000000000, 1764.00000000000000000000, 1746.00000000000000000000, 0.00000000000000000000, 0.00000000000000000000, 319.00000000000000000000, 815.00000000000000000000, 4.00000000000000000000, 4.00000000000000000000, 3.00000000000000000000, 2.00000000000000000000, 4.00000000000000000000, 2.00000000000000000000, 4.00000000000000000000, 3.00000000000000000000, 4.00000000000000000000, 4.00000000000000000000, 4.00000000000000000000, 4.00000000000000000000, 4.00000000000000000000, 4.00000000000000000000, 4.00000000000000000000, 4.00000000000000000000
7.00000000000000000000, 0.00000000000000000000, 4323.58963786419460000000, 4842.56398414797700000000, 3934.87169865163920000000, 4771.79475510927930000000, 3988.20503068080230000000, 4665.12809105095310000000, 4299.99989485129570000000, 4428.71784042168020000000, 4352.30758587989840000000, 4157.94861627362020000000, 4415.89732791467030000000, 3753.33324155237140000000, 3906.66657113621610000000, 4337.94861187204700000000, 410.00000000000000000000, 1764.00000000000000000000, 1745.00000000000000000000, 0.00000000000000000000, 0.00000000000000000000, 319.00000000000000000000, 823.00000000000000000000, 4.00000000000000000000, 4.00000000000000000000, 3.00000000000000000000, 2.00000000000000000000, 4.00000000000000000000, 2.00000000000000000000, 4.00000000000000000000, 3.00000000000000000000, 4.00000000000000000000, 4.00000000000000000000, 4.00000000000000000000, 4.00000000000000000000, 4.00000000000000000000, 4.00000000000000000000, 4.00000000000000000000, 4.00000000000000000000
8.00000000000000000000, 0.00000000000000000000, 4329.23066336727970000000, 4843.58962514853740000000, 3932.82041665051750000000, 4774.35885761068130000000, 3993.84605618388700000000, 4662.56398854955020000000, 4308.71784335606300000000, 4466.66655744243140000000, 4390.76912340092990000000, 4170.76912878063100000000, 4425.12809691971780000000, 3766.15375405938180000000, 3910.76913513845970000000, 4349.74348337849640000000, 414.00000000000000000000, 1764.00000000000000000000, 1745.00000000000000000000, 0.00000000000000000000, 0.00000000000000000000, 319.00000000000000000000, 831.00000000000000000000, 4.00000000000000000000, 4.00000000000000000000, 3.00000000000000000000, 2.00000000000000000000, 4.00000000000000000000, 2.00000000000000000000, 4.00000000000000000000, 3.00000000000000000000, 4.00000000000000000000, 4.00000000000000000000, 4.00000000000000000000, 4.00000000000000000000, 4.00000000000000000000, 4.00000000000000000000, 4.00000000000000000000, 4.00000000000000000000
9.00000000000000000000, 0.00000000000000000000, 4324.10245836447580000000, 4843.07680464825720000000, 3926.15375014687200000000, 4773.33321661012090000000, 3993.33323568360670000000, 4657.94860404702650000000, 4308.71784335606300000000, 4473.84604444635720000000, 4397.43578990457540000000, 4172.30759028147170000000, 4422.56399441831580000000, 3766.66657455966240000000, 3911.79477613902010000000, 4345.12809887597270000000, 409.00000000000000000000, 1764.00000000000000000000, 1744.00000000000000000000, 0.00000000000000000000, 0.00000000000000000000, 319.00000000000000000000, 839.00000000000000000000, 4.00000000000000000000, 4.00000000000000000000, 3.00000000000000000000, 2.00000000000000000000, 4.00000000000000000000, 2.00000000000000000000, 4.00000000000000000000, 3.00000000000000000000, 4.00000000000000000000, 4.00000000000000000000, 4.00000000000000000000, 4.00000000000000000000, 4.00000000000000000000, 4.00000000000000000000, 4.00000000000000000000, 4.00000000000000000000
10.00000000000000000000, 0.00000000000000000000, 4317.94861236111050000000, 4842.05116364769670000000, 3926.15375014687200000000, 4773.33321661012090000000, 3994.35887668416760000000, 4657.94860404702650000000, 4297.94861285017400000000, 4442.05117342897120000000, 4365.12809838690920000000, 4165.12810327754600000000, 4423.58963541887620000000, 3759.48708755573630000000, 3907.69221213677700000000, 4337.43579137176680000000, 351.00000000000000000000, 1764.00000000000000000000, 1746.00000000000000000000, 0.00000000000000000000, 0.00000000000000000000, 319.00000000000000000000, 846.00000000000000000000, 4.00000000000000000000, 4.00000000000000000000, 3.00000000000000000000, 2.00000000000000000000, 4.00000000000000000000, 2.00000000000000000000, 4.00000000000000000000, 3.00000000000000000000, 4.00000000000000000000, 4.00000000000000000000, 4.00000000000000000000, 4.00000000000000000000, 4.00000000000000000000, 4.00000000000000000000, 4.00000000000000000000, 4.00000000000000000000
11.00000000000000000000, 0.00000000000000000000, 4322.05117636335400000000, 4844.61526614909870000000, 3933.84605765107840000000, 4777.94860111264460000000, 3994.87169718444780000000, 4659.48706554786800000000, 4280.51271584064030000000, 4418.46143041607230000000, 4351.28194487933800000000, 4167.69220577894790000000, 4429.74348142224150000000, 3764.61529255854070000000, 3908.20503263705720000000, 4349.23066287821620000000, 443.00000000000000000000, 1765.00000000000000000000, 1744.00000000000000000000, 0.00000000000000000000, 0.00000000000000000000, 319.00000000000000000000, 854.00000000000000000000, 4.00000000000000000000, 4.00000000000000000000, 3.00000000000000000000, 2.00000000000000000000, 4.00000000000000000000, 2.00000000000000000000, 4.00000000000000000000, 3.00000000000000000000, 4.00000000000000000000, 4.00000000000000000000, 4.00000000000000000000, 4.00000000000000000000, 4.00000000000000000000, 4.00000000000000000000, 4.00000000000000000000, 4.00000000000000000000
12.00000000000000000000, 0.00000000000000000000, 4325.12809936503620000000, 4848.20500965106200000000, 3939.48708315416300000000, 4774.87167811096150000000, 3998.97426118669140000000, 4661.02552704870960000000, 4287.17938234428580000000, 4438.46142992700880000000, 4370.25630338971310000000, 4174.87169278287460000000, 4430.76912242280200000000, 3770.76913856190550000000, 3913.33323763986160000000, 4362.56399588550630000000, 428.00000000000000000000, 1764.00000000000000000000, 1746.00000000000000000000, 0.00000000000000000000, 0.00000000000000000000, 319.00000000000000000000, 862.00000000000000000000, 4.00000000000000000000, 4.00000000000000000000, 3.00000000000000000000, 2.00000000000000000000, 4.00000000000000000000, 2.00000000000000000000, 4.00000000000000000000, 3.00000000000000000000, 4.00000000000000000000, 4.00000000000000000000, 4.00000000000000000000, 4.00000000000000000000, 4.00000000000000000000, 4.00000000000000000000, 4.00000000000000000000, 4.00000000000000000000
13.00000000000000000000, 0.00000000000000000000, 4327.17938136615790000000, 4848.71783015134220000000, 3939.99990365444320000000, 4771.28193460899910000000, 4007.17938919117800000000, 4658.97424504758780000000, 4296.92297184961350000000, 4466.15373694215120000000, 4390.25630290064960000000, 4177.94861578455680000000, 4430.76912242280200000000, 3770.25631806162530000000, 3915.89734014126360000000, 4363.07681638578740000000, 446.00000000000000000000, 1766.00000000000000000000, 1745.00000000000000000000, 0.00000000000000000000, 0.00000000000000000000, 319.00000000000000000000, 870.00000000000000000000, 4.00000000000000000000, 4.00000000000000000000, 3.00000000000000000000, 2.00000000000000000000, 4.00000000000000000000, 2.00000000000000000000, 4.00000000000000000000, 3.00000000000000000000, 4.00000000000000000000, 4.00000000000000000000, 4.00000000000000000000, 4.00000000000000000000, 4.00000000000000000000, 4.00000000000000000000, 4.00000000000000000000, 4.00000000000000000000
