title:test left notmove                                                               , recorded:30.11.20 11.40.24, sampling:128, subject:iwasaki                                                                         , labels:COUNTER INTERPOLATED AF3 F7 F3 FC5 T7 P7 O1 O2 P8 T8 FC6 F4 F8 AF4 RAW_CQ GYROX GYROY MARKER SYNC TIME_STAMP_s TIME_STAMP_ms CQ_AF3 CQ_F7 CQ_F3 CQ_FC5 CQ_T7 CQ_P7 CQ_O1 CQ_O2 CQ_P8 CQ_T8 CQ_FC6 CQ_F4 CQ_F8 CQ_AF4 CQ_CMS CQ_DRL, chan:39, units:emotiv
13.00000000000000000000, 0.00000000000000000000, 4283.58963884232250000000, 4859.48706065723040000000, 3913.84605814014180000000, 4766.66655010647540000000, 3992.30759468304590000000, 4640.51270703749290000000, 4318.97425336167090000000, 4419.48707141663270000000, 4395.89732840373380000000, 4191.79476929212800000000, 4394.35886690289230000000, 3749.74349805040860000000, 3914.35887864042250000000, 4347.17938087709440000000, 444.00000000000000000000, 1751.00000000000000000000, 1735.00000000000000000000, 0.00000000000000000000, 0.00000000000000000000, 234.00000000000000000000, 126.00000000000000000000, 0.00000000000000000000, 0.00000000000000000000, 0.00000000000000000000, 0.00000000000000000000, 0.00000000000000000000, 0.00000000000000000000, 0.00000000000000000000, 0.00000000000000000000, 0.00000000000000000000, 0.00000000000000000000, 0.00000000000000000000, 4.00000000000000000000, 0.00000000000000000000, 0.00000000000000000000, 4.00000000000000000000, 4.00000000000000000000
14.00000000000000000000, 0.00000000000000000000, 4270.25630583503150000000, 4846.66654815022050000000, 3906.66657113621610000000, 4759.48706310254970000000, 3977.94862067519400000000, 4643.07680953889480000000, 4312.82040735830650000000, 4407.69219991018330000000, 4385.64091839812590000000, 4174.35887228259340000000, 4388.71784139980810000000, 3743.07683154676310000000, 3908.71785313733790000000, 4335.89732987092520000000, 358.00000000000000000000, 1751.00000000000000000000, 1735.00000000000000000000, 0.00000000000000000000, 0.00000000000000000000, 234.00000000000000000000, 134.00000000000000000000, 0.00000000000000000000, 0.00000000000000000000, 0.00000000000000000000, 0.00000000000000000000, 0.00000000000000000000, 0.00000000000000000000, 0.00000000000000000000, 0.00000000000000000000, 0.00000000000000000000, 0.00000000000000000000, 0.00000000000000000000, 4.00000000000000000000, 0.00000000000000000000, 0.00000000000000000000, 4.00000000000000000000, 4.00000000000000000000
15.00000000000000000000, 0.00000000000000000000, 4269.74348533475130000000, 4848.20500965106200000000, 3906.15375063593590000000, 4752.30757609862390000000, 3969.23067217042720000000, 4646.15373254057700000000, 4315.38450985970850000000, 4397.94861040485560000000, 4377.94861089391910000000, 4166.66656477838750000000, 4389.74348240036850000000, 3744.61529304760420000000, 3907.69221213677700000000, 4332.82040686924300000000, 445.00000000000000000000, 1751.00000000000000000000, 1737.00000000000000000000, 0.00000000000000000000, 0.00000000000000000000, 234.00000000000000000000, 142.00000000000000000000, 0.00000000000000000000, 0.00000000000000000000, 0.00000000000000000000, 0.00000000000000000000, 0.00000000000000000000, 0.00000000000000000000, 0.00000000000000000000, 0.00000000000000000000, 0.00000000000000000000, 0.00000000000000000000, 0.00000000000000000000, 4.00000000000000000000, 0.00000000000000000000, 0.00000000000000000000, 4.00000000000000000000, 4.00000000000000000000
16.00000000000000000000, 0.00000000000000000000, 4288.71784384512650000000, 4863.58962465947390000000, 3915.38451964098340000000, 4765.64090910591400000000, 3982.56400517771770000000, 4641.02552753777310000000, 4313.33322785858670000000, 4412.30758441270700000000, 4392.30758490177050000000, 4185.64092328876270000000, 4398.46143090513580000000, 3752.82042105209120000000, 3918.97426314294630000000, 4345.12809887597270000000, 0.00000000000000000000, 1750.00000000000000000000, 1738.00000000000000000000, 0.00000000000000000000, 0.00000000000000000000, 234.00000000000000000000, 150.00000000000000000000, 0.00000000000000000000, 0.00000000000000000000, 0.00000000000000000000, 0.00000000000000000000, 0.00000000000000000000, 0.00000000000000000000, 0.00000000000000000000, 0.00000000000000000000, 0.00000000000000000000, 0.00000000000000000000, 0.00000000000000000000, 4.00000000000000000000, 0.00000000000000000000, 0.00000000000000000000, 4.00000000000000000000, 4.00000000000000000000
17.00000000000000000000, 0.00000000000000000000, 4293.33322834765020000000, 4865.64090666059560000000, 3917.43580164210470000000, 4779.48706261348620000000, 3987.69221018052210000000, 4636.92296353552960000000, 4304.10245885353920000000, 4414.87168691410900000000, 4394.35886690289230000000, 4196.41015379465170000000, 4404.10245640822090000000, 3750.76913905096940000000, 3922.56400664490910000000, 4349.74348337849640000000, 0.00000000000000000000, 1750.00000000000000000000, 1737.00000000000000000000, 0.00000000000000000000, 0.00000000000000000000, 234.00000000000000000000, 157.00000000000000000000, 0.00000000000000000000, 0.00000000000000000000, 0.00000000000000000000, 0.00000000000000000000, 0.00000000000000000000, 0.00000000000000000000, 0.00000000000000000000, 0.00000000000000000000, 0.00000000000000000000, 0.00000000000000000000, 0.00000000000000000000, 4.00000000000000000000, 0.00000000000000000000, 0.00000000000000000000, 4.00000000000000000000, 4.00000000000000000000
18.00000000000000000000, 0.00000000000000000000, 4279.48707484007900000000, 4853.84603515414620000000, 3909.23067363761810000000, 4774.35885761068130000000, 3979.48708217603550000000, 4644.61527103973640000000, 4302.56399735269770000000, 4392.30758490177050000000, 4372.82040589111510000000, 4186.15374378904290000000, 4397.94861040485560000000, 3741.53837004592200000000, 3913.33323763986160000000, 4344.10245787541130000000, 0.00000000000000000000, 1750.00000000000000000000, 1737.00000000000000000000, 0.00000000000000000000, 0.00000000000000000000, 234.00000000000000000000, 165.00000000000000000000, 0.00000000000000000000, 0.00000000000000000000, 0.00000000000000000000, 0.00000000000000000000, 0.00000000000000000000, 0.00000000000000000000, 0.00000000000000000000, 0.00000000000000000000, 0.00000000000000000000, 0.00000000000000000000, 0.00000000000000000000, 4.00000000000000000000, 0.00000000000000000000, 0.00000000000000000000, 4.00000000000000000000, 4.00000000000000000000
19.00000000000000000000, 0.00000000000000000000, 4261.53835733026430000000, 4843.07680464825720000000, 3899.99990463257060000000, 4758.46142210198830000000, 3967.17939016930540000000, 4651.79475804366210000000, 4312.30758685802630000000, 4390.76912340092990000000, 4375.38450839251710000000, 4170.25630828035080000000, 4383.58963639700410000000, 3731.28196004031360000000, 3899.48708413229040000000, 4325.64091986531640000000, 0.00000000000000000000, 1750.00000000000000000000, 1737.00000000000000000000, 0.00000000000000000000, 0.00000000000000000000, 234.00000000000000000000, 173.00000000000000000000, 0.00000000000000000000, 0.00000000000000000000, 0.00000000000000000000, 0.00000000000000000000, 0.00000000000000000000, 0.00000000000000000000, 0.00000000000000000000, 0.00000000000000000000, 0.00000000000000000000, 0.00000000000000000000, 0.00000000000000000000, 4.00000000000000000000, 0.00000000000000000000, 0.00000000000000000000, 4.00000000000000000000, 4.00000000000000000000
20.00000000000000000000, 0.00000000000000000000, 4255.89733182718010000000, 4837.94859964545320000000, 3897.94862263144890000000, 4752.82039659890420000000, 3963.07682616706190000000, 4646.15373254057700000000, 4323.58963786419460000000, 4416.41014841495050000000, 4405.12809740878130000000, 4166.15374427810730000000, 4380.51271339532100000000, 3725.12811403694830000000, 3896.41016113060780000000, 4311.28194585746500000000, 0.00000000000000000000, 1752.00000000000000000000, 1737.00000000000000000000, 0.00000000000000000000, 0.00000000000000000000, 234.00000000000000000000, 181.00000000000000000000, 0.00000000000000000000, 0.00000000000000000000, 0.00000000000000000000, 0.00000000000000000000, 0.00000000000000000000, 0.00000000000000000000, 0.00000000000000000000, 0.00000000000000000000, 0.00000000000000000000, 0.00000000000000000000, 0.00000000000000000000, 4.00000000000000000000, 0.00000000000000000000, 0.00000000000000000000, 4.00000000000000000000, 4.00000000000000000000
21.00000000000000000000, 0.00000000000000000000, 4281.02553634092060000000, 4855.38449665498770000000, 3911.79477613902010000000, 4761.53834510367140000000, 3983.58964617827860000000, 4633.84604053384740000000, 4304.61527935381950000000, 4416.41014841495050000000, 4410.25630241158520000000, 4184.61528228820230000000, 4401.02553340653780000000, 3737.94862654395910000000, 3916.41016064154380000000, 4336.41015037120540000000, 0.00000000000000000000, 1752.00000000000000000000, 1737.00000000000000000000, 0.00000000000000000000, 0.00000000000000000000, 234.00000000000000000000, 189.00000000000000000000, 0.00000000000000000000, 0.00000000000000000000, 0.00000000000000000000, 0.00000000000000000000, 0.00000000000000000000, 0.00000000000000000000, 0.00000000000000000000, 0.00000000000000000000, 0.00000000000000000000, 0.00000000000000000000, 0.00000000000000000000, 4.00000000000000000000, 0.00000000000000000000, 0.00000000000000000000, 4.00000000000000000000, 4.00000000000000000000
22.00000000000000000000, 0.00000000000000000000, 4303.58963835325900000000, 4878.97423966788660000000, 3924.10246814575020000000, 4769.23065260787730000000, 4005.12810719005620000000, 4633.84604053384740000000, 4277.43579283895720000000, 4395.38450790345360000000, 4386.66655939868630000000, 4204.61528179913880000000, 4419.48707141663270000000, 3756.41016455405410000000, 3933.33323715079770000000, 4367.17938038803090000000, 0.00000000000000000000, 1753.00000000000000000000, 1736.00000000000000000000, 0.00000000000000000000, 0.00000000000000000000, 234.00000000000000000000, 196.00000000000000000000, 0.00000000000000000000, 0.00000000000000000000, 0.00000000000000000000, 0.00000000000000000000, 0.00000000000000000000, 0.00000000000000000000, 0.00000000000000000000, 0.00000000000000000000, 0.00000000000000000000, 0.00000000000000000000, 0.00000000000000000000, 4.00000000000000000000, 0.00000000000000000000, 0.00000000000000000000, 4.00000000000000000000, 4.00000000000000000000
23.00000000000000000000, 0.00000000000000000000, 4296.92297184961350000000, 4872.82039366452140000000, 3917.94862214238540000000, 4771.79475510927930000000, 4000.51272268753250000000, 4646.66655304085820000000, 4296.92297184961350000000, 4396.41014890401400000000, 4382.56399539644280000000, 4203.58964079857740000000, 4413.33322541326830000000, 3757.43580555461490000000, 3925.12810914631110000000, 4361.02553438466570000000, 0.00000000000000000000, 1753.00000000000000000000, 1737.00000000000000000000, 0.00000000000000000000, 0.00000000000000000000, 234.00000000000000000000, 204.00000000000000000000, 0.00000000000000000000, 0.00000000000000000000, 0.00000000000000000000, 0.00000000000000000000, 0.00000000000000000000, 0.00000000000000000000, 0.00000000000000000000, 0.00000000000000000000, 0.00000000000000000000, 0.00000000000000000000, 0.00000000000000000000, 4.00000000000000000000, 0.00000000000000000000, 0.00000000000000000000, 4.00000000000000000000, 4.00000000000000000000
24.00000000000000000000, 0.00000000000000000000, 4293.84604884793040000000, 4861.53834265835210000000, 3914.35887864042250000000, 4773.84603711040110000000, 3989.74349218164340000000, 4644.10245053945530000000, 4319.48707386195200000000, 4413.84604591354860000000, 4401.53835390681890000000, 4194.87169229381020000000, 4413.84604591354860000000, 3757.94862605489520000000, 3921.53836564434820000000, 4356.41014988214190000000, 0.00000000000000000000, 1753.00000000000000000000, 1737.00000000000000000000, 0.00000000000000000000, 0.00000000000000000000, 234.00000000000000000000, 212.00000000000000000000, 0.00000000000000000000, 0.00000000000000000000, 0.00000000000000000000, 0.00000000000000000000, 0.00000000000000000000, 0.00000000000000000000, 0.00000000000000000000, 0.00000000000000000000, 0.00000000000000000000, 0.00000000000000000000, 0.00000000000000000000, 4.00000000000000000000, 0.00000000000000000000, 0.00000000000000000000, 4.00000000000000000000, 4.00000000000000000000
25.00000000000000000000, 0.00000000000000000000, 4303.58963835325900000000, 4872.82039366452140000000, 3922.05118614462840000000, 4773.84603711040110000000, 3994.35887668416760000000, 4634.87168153440780000000, 4293.84604884793040000000, 4410.25630241158520000000, 4401.53835390681890000000, 4198.97425629605370000000, 4429.23066092196130000000, 3764.61529255854070000000, 3934.35887815135860000000, 4370.76912388999340000000, 0.00000000000000000000, 1753.00000000000000000000, 1739.00000000000000000000, 0.00000000000000000000, 0.00000000000000000000, 234.00000000000000000000, 220.00000000000000000000, 0.00000000000000000000, 0.00000000000000000000, 0.00000000000000000000, 0.00000000000000000000, 0.00000000000000000000, 0.00000000000000000000, 0.00000000000000000000, 0.00000000000000000000, 0.00000000000000000000, 0.00000000000000000000, 0.00000000000000000000, 4.00000000000000000000, 0.00000000000000000000, 0.00000000000000000000, 4.00000000000000000000, 4.00000000000000000000
26.00000000000000000000, 0.00000000000000000000, 4303.07681785297880000000, 4874.35885516536290000000, 3922.56400664490910000000, 4773.33321661012090000000, 3994.35887668416760000000, 4644.10245053945530000000, 4282.56399784176210000000, 4395.89732840373380000000, 4382.56399539644280000000, 4201.02553829717540000000, 4422.05117391803470000000, 3757.43580555461490000000, 3932.30759615023680000000, 4366.15373938746960000000, 0.00000000000000000000, 1754.00000000000000000000, 1737.00000000000000000000, 0.00000000000000000000, 0.00000000000000000000, 234.00000000000000000000, 228.00000000000000000000, 0.00000000000000000000, 0.00000000000000000000, 0.00000000000000000000, 0.00000000000000000000, 0.00000000000000000000, 0.00000000000000000000, 0.00000000000000000000, 0.00000000000000000000, 0.00000000000000000000, 0.00000000000000000000, 0.00000000000000000000, 4.00000000000000000000, 0.00000000000000000000, 0.00000000000000000000, 4.00000000000000000000, 4.00000000000000000000
27.00000000000000000000, 0.00000000000000000000, 4298.46143335045510000000, 4859.48706065723040000000, 3918.46144264266560000000, 4770.25629360843780000000, 3990.76913318220430000000, 4649.74347604254040000000, 4309.74348435662340000000, 4413.33322541326830000000, 4394.87168740317340000000, 4195.89733329437150000000, 4407.69219991018330000000, 3748.20503654956750000000, 3925.64092964659180000000, 4354.87168838130040000000, 0.00000000000000000000, 1753.00000000000000000000, 1737.00000000000000000000, 0.00000000000000000000, 0.00000000000000000000, 234.00000000000000000000, 236.00000000000000000000, 0.00000000000000000000, 0.00000000000000000000, 0.00000000000000000000, 0.00000000000000000000, 0.00000000000000000000, 0.00000000000000000000, 0.00000000000000000000, 0.00000000000000000000, 0.00000000000000000000, 0.00000000000000000000, 0.00000000000000000000, 4.00000000000000000000, 0.00000000000000000000, 0.00000000000000000000, 4.00000000000000000000, 4.00000000000000000000
28.00000000000000000000, 0.00000000000000000000, 4299.48707435101550000000, 4863.58962465947390000000, 3919.48708364322650000000, 4771.28193460899910000000, 3999.48708168697160000000, 4644.61527103973640000000, 4323.58963786419460000000, 4432.82040442392370000000, 4415.38450741439010000000, 4196.41015379465170000000, 4417.94860991579210000000, 3752.82042105209120000000, 3928.71785264827390000000, 4363.07681638578740000000, 0.00000000000000000000, 1754.00000000000000000000, 1737.00000000000000000000, 0.00000000000000000000, 0.00000000000000000000, 234.00000000000000000000, 243.00000000000000000000, 0.00000000000000000000, 0.00000000000000000000, 0.00000000000000000000, 0.00000000000000000000, 0.00000000000000000000, 0.00000000000000000000, 0.00000000000000000000, 0.00000000000000000000, 0.00000000000000000000, 0.00000000000000000000, 0.00000000000000000000, 4.00000000000000000000, 0.00000000000000000000, 0.00000000000000000000, 4.00000000000000000000, 4.00000000000000000000
29.00000000000000000000, 0.00000000000000000000, 4295.89733084905220000000, 4874.35885516536290000000, 3917.94862214238540000000, 4778.46142161292480000000, 4001.53836368809330000000, 4648.71783504197900000000, 4318.46143286139070000000, 4412.82040491298720000000, 4397.43578990457540000000, 4193.84605129324970000000, 4424.10245591915650000000, 3752.82042105209120000000, 3928.20503214799370000000, 4359.48707288382410000000, 0.00000000000000000000, 1754.00000000000000000000, 1736.00000000000000000000, 0.00000000000000000000, 0.00000000000000000000, 234.00000000000000000000, 251.00000000000000000000, 0.00000000000000000000, 0.00000000000000000000, 0.00000000000000000000, 0.00000000000000000000, 0.00000000000000000000, 0.00000000000000000000, 0.00000000000000000000, 0.00000000000000000000, 0.00000000000000000000, 0.00000000000000000000, 0.00000000000000000000, 4.00000000000000000000, 0.00000000000000000000, 0.00000000000000000000, 4.00000000000000000000, 4.00000000000000000000
30.00000000000000000000, 0.00000000000000000000, 4292.82040784737000000000, 4871.79475266396090000000, 3914.87169914070270000000, 4774.87167811096150000000, 3998.46144068641070000000, 4650.76911704310080000000, 4313.84604835886690000000, 4393.84604640261200000000, 4386.15373889840610000000, 4191.28194879184780000000, 4414.35886641382880000000, 3744.61529304760420000000, 3923.07682714518930000000, 4342.05117587429050000000, 0.00000000000000000000, 1753.00000000000000000000, 1736.00000000000000000000, 0.00000000000000000000, 0.00000000000000000000, 234.00000000000000000000, 259.00000000000000000000, 0.00000000000000000000, 0.00000000000000000000, 0.00000000000000000000, 0.00000000000000000000, 0.00000000000000000000, 0.00000000000000000000, 0.00000000000000000000, 0.00000000000000000000, 0.00000000000000000000, 0.00000000000000000000, 0.00000000000000000000, 4.00000000000000000000, 0.00000000000000000000, 0.00000000000000000000, 4.00000000000000000000, 4.00000000000000000000
31.00000000000000000000, 0.00000000000000000000, 4294.87168984849180000000, 4866.66654766115700000000, 3916.92298114182450000000, 4767.17937060675560000000, 3999.99990218725180000000, 4643.58963003917510000000, 4309.23066385634320000000, 4397.94861040485560000000, 4391.79476440149030000000, 4195.89733329437150000000, 4415.38450741439010000000, 3745.12811354788480000000, 3925.64092964659180000000, 4347.17938087709440000000, 0.00000000000000000000, 1754.00000000000000000000, 1733.00000000000000000000, 0.00000000000000000000, 0.00000000000000000000, 234.00000000000000000000, 267.00000000000000000000, 0.00000000000000000000, 0.00000000000000000000, 0.00000000000000000000, 0.00000000000000000000, 0.00000000000000000000, 0.00000000000000000000, 0.00000000000000000000, 0.00000000000000000000, 0.00000000000000000000, 0.00000000000000000000, 0.00000000000000000000, 4.00000000000000000000, 0.00000000000000000000, 0.00000000000000000000, 4.00000000000000000000, 4.00000000000000000000
32.00000000000000000000, 0.00000000000000000000, 4295.38451034877200000000, 4863.07680415919370000000, 3918.46144264266560000000, 4769.74347310815760000000, 3993.84605618388700000000, 4645.12809154001660000000, 4310.76912535718470000000, 4394.35886690289230000000, 4382.56399539644280000000, 4192.82041029268840000000, 4422.05117391803470000000, 3754.87170305321250000000, 3929.74349364883480000000, 4357.43579088270230000000, 0.00000000000000000000, 1753.00000000000000000000, 1734.00000000000000000000, 0.00000000000000000000, 0.00000000000000000000, 234.00000000000000000000, 275.00000000000000000000, 0.00000000000000000000, 0.00000000000000000000, 0.00000000000000000000, 0.00000000000000000000, 0.00000000000000000000, 0.00000000000000000000, 0.00000000000000000000, 0.00000000000000000000, 0.00000000000000000000, 0.00000000000000000000, 0.00000000000000000000, 4.00000000000000000000, 0.00000000000000000000, 0.00000000000000000000, 4.00000000000000000000, 4.00000000000000000000
33.00000000000000000000, 0.00000000000000000000, 4296.92297184961350000000, 4866.15372716087590000000, 3918.97426314294630000000, 4775.38449861124260000000, 3986.15374867968060000000, 4647.17937354113840000000, 4321.53835586307380000000, 4399.48707190569710000000, 4391.28194390121010000000, 4189.23066679072600000000, 4427.69219942111980000000, 3765.64093355910150000000, 3932.30759615023680000000, 4350.76912437905680000000, 0.00000000000000000000, 1753.00000000000000000000, 1733.00000000000000000000, 0.00000000000000000000, 0.00000000000000000000, 234.00000000000000000000, 282.00000000000000000000, 0.00000000000000000000, 0.00000000000000000000, 0.00000000000000000000, 0.00000000000000000000, 0.00000000000000000000, 0.00000000000000000000, 0.00000000000000000000, 0.00000000000000000000, 0.00000000000000000000, 0.00000000000000000000, 0.00000000000000000000, 4.00000000000000000000, 0.00000000000000000000, 0.00000000000000000000, 4.00000000000000000000, 4.00000000000000000000
34.00000000000000000000, 0.00000000000000000000, 4305.12809985409970000000, 4877.94859866732530000000, 3927.17939114743290000000, 4782.56398561516830000000, 3997.43579968584980000000, 4639.48706603693150000000, 4322.05117636335400000000, 4419.99989191691380000000, 4413.84604591354860000000, 4200.51271779689520000000, 4435.38450692532570000000, 3766.66657455966240000000, 3931.79477564995660000000, 4351.79476537961820000000, 0.00000000000000000000, 1752.00000000000000000000, 1732.00000000000000000000, 0.00000000000000000000, 0.00000000000000000000, 234.00000000000000000000, 290.00000000000000000000, 0.00000000000000000000, 0.00000000000000000000, 0.00000000000000000000, 0.00000000000000000000, 0.00000000000000000000, 0.00000000000000000000, 0.00000000000000000000, 0.00000000000000000000, 0.00000000000000000000, 0.00000000000000000000, 0.00000000000000000000, 4.00000000000000000000, 0.00000000000000000000, 0.00000000000000000000, 4.00000000000000000000, 4.00000000000000000000
35.00000000000000000000, 0.00000000000000000000, 4314.35886885914720000000, 4881.02552166900840000000, 3933.84605765107840000000, 4787.17937011769210000000, 4006.66656869089730000000, 4639.99988653721270000000, 4302.05117685241750000000, 4421.02553291747430000000, 4404.61527690850110000000, 4210.76912780250310000000, 4437.43578892644750000000, 3762.05119005713870000000, 3932.82041665051750000000, 4369.74348288943290000000, 0.00000000000000000000, 1752.00000000000000000000, 1731.00000000000000000000, 0.00000000000000000000, 0.00000000000000000000, 234.00000000000000000000, 298.00000000000000000000, 0.00000000000000000000, 0.00000000000000000000, 0.00000000000000000000, 0.00000000000000000000, 0.00000000000000000000, 0.00000000000000000000, 0.00000000000000000000, 0.00000000000000000000, 0.00000000000000000000, 0.00000000000000000000, 0.00000000000000000000, 4.00000000000000000000, 0.00000000000000000000, 0.00000000000000000000, 4.00000000000000000000, 4.00000000000000000000
36.00000000000000000000, 0.00000000000000000000, 4311.79476635774520000000, 4875.38449616592330000000, 3926.15375014687200000000, 4779.48706261348620000000, 3996.92297918556960000000, 4649.23065554226010000000, 4293.33322834765020000000, 4411.28194341214660000000, 4392.30758490177050000000, 4210.76912780250310000000, 4434.35886592476530000000, 3764.61529255854070000000, 3935.89733965219970000000, 4374.87168789223690000000, 0.00000000000000000000, 1751.00000000000000000000, 1731.00000000000000000000, 0.00000000000000000000, 0.00000000000000000000, 234.00000000000000000000, 306.00000000000000000000, 0.00000000000000000000, 0.00000000000000000000, 0.00000000000000000000, 0.00000000000000000000, 0.00000000000000000000, 0.00000000000000000000, 0.00000000000000000000, 0.00000000000000000000, 0.00000000000000000000, 0.00000000000000000000, 0.00000000000000000000, 4.00000000000000000000, 0.00000000000000000000, 0.00000000000000000000, 4.00000000000000000000, 4.00000000000000000000
37.00000000000000000000, 0.00000000000000000000, 4306.66656135494120000000, 4875.38449616592330000000, 3918.97426314294630000000, 4774.87167811096150000000, 3994.87169718444780000000, 4649.74347604254040000000, 4308.20502285578280000000, 4408.71784091074460000000, 4397.43578990457540000000, 4206.66656380025960000000, 4432.82040442392370000000, 3767.69221556022330000000, 3934.87169865163920000000, 4366.15373938746960000000, 0.00000000000000000000, 1751.00000000000000000000, 1731.00000000000000000000, 0.00000000000000000000, 0.00000000000000000000, 234.00000000000000000000, 314.00000000000000000000, 0.00000000000000000000, 0.00000000000000000000, 0.00000000000000000000, 0.00000000000000000000, 0.00000000000000000000, 0.00000000000000000000, 0.00000000000000000000, 0.00000000000000000000, 0.00000000000000000000, 0.00000000000000000000, 0.00000000000000000000, 4.00000000000000000000, 0.00000000000000000000, 0.00000000000000000000, 4.00000000000000000000, 4.00000000000000000000
38.00000000000000000000, 0.00000000000000000000, 4309.74348435662340000000, 4876.41013716648470000000, 3923.58964764547000000000, 4777.94860111264460000000, 4006.66656869089730000000, 4641.53834803805330000000, 4310.25630485690450000000, 4408.71784091074460000000, 4394.35886690289230000000, 4205.12810229941900000000, 4430.76912242280200000000, 3764.61529255854070000000, 3928.20503214799370000000, 4363.58963688606760000000, 0.00000000000000000000, 1750.00000000000000000000, 1731.00000000000000000000, 0.00000000000000000000, 0.00000000000000000000, 234.00000000000000000000, 322.00000000000000000000, 0.00000000000000000000, 0.00000000000000000000, 0.00000000000000000000, 0.00000000000000000000, 0.00000000000000000000, 0.00000000000000000000, 0.00000000000000000000, 0.00000000000000000000, 0.00000000000000000000, 0.00000000000000000000, 0.00000000000000000000, 4.00000000000000000000, 0.00000000000000000000, 0.00000000000000000000, 4.00000000000000000000, 4.00000000000000000000
39.00000000000000000000, 0.00000000000000000000, 4313.84604835886690000000, 4873.84603466508270000000, 3929.74349364883480000000, 4777.94860111264460000000, 4011.28195319342100000000, 4639.99988653721270000000, 4302.56399735269770000000, 4412.30758441270700000000, 4393.33322590233180000000, 4205.12810229941900000000, 4431.28194292308220000000, 3765.64093355910150000000, 3926.66657064715220000000, 4364.61527788662810000000, 0.00000000000000000000, 1751.00000000000000000000, 1731.00000000000000000000, 0.00000000000000000000, 0.00000000000000000000, 234.00000000000000000000, 329.00000000000000000000, 0.00000000000000000000, 0.00000000000000000000, 0.00000000000000000000, 0.00000000000000000000, 0.00000000000000000000, 0.00000000000000000000, 0.00000000000000000000, 0.00000000000000000000, 0.00000000000000000000, 0.00000000000000000000, 0.00000000000000000000, 4.00000000000000000000, 0.00000000000000000000, 0.00000000000000000000, 4.00000000000000000000, 4.00000000000000000000
40.00000000000000000000, 0.00000000000000000000, 4314.87168935942830000000, 4875.89731666620450000000, 3927.69221164771310000000, 4781.02552411432680000000, 4006.15374819061710000000, 4646.66655304085820000000, 4308.71784335606300000000, 4414.87168691410900000000, 4398.97425140541600000000, 4198.97425629605370000000, 4432.82040442392370000000, 3767.17939505994260000000, 3930.25631414911550000000, 4364.10245738634790000000, 0.00000000000000000000, 1750.00000000000000000000, 1730.00000000000000000000, 0.00000000000000000000, 0.00000000000000000000, 234.00000000000000000000, 337.00000000000000000000, 0.00000000000000000000, 0.00000000000000000000, 0.00000000000000000000, 0.00000000000000000000, 0.00000000000000000000, 0.00000000000000000000, 0.00000000000000000000, 0.00000000000000000000, 0.00000000000000000000, 0.00000000000000000000, 0.00000000000000000000, 4.00000000000000000000, 0.00000000000000000000, 0.00000000000000000000, 4.00000000000000000000, 4.00000000000000000000
41.00000000000000000000, 0.00000000000000000000, 4311.79476635774520000000, 4878.46141916760640000000, 3923.58964764547000000000, 4781.02552411432680000000, 3995.38451768472810000000, 4646.66655304085820000000, 4312.82040735830650000000, 4412.82040491298720000000, 4400.51271290625750000000, 4191.28194879184780000000, 4425.64091741999800000000, 3761.02554905657780000000, 3928.20503214799370000000, 4364.61527788662810000000, 0.00000000000000000000, 1750.00000000000000000000, 1730.00000000000000000000, 0.00000000000000000000, 0.00000000000000000000, 234.00000000000000000000, 345.00000000000000000000, 0.00000000000000000000, 0.00000000000000000000, 0.00000000000000000000, 0.00000000000000000000, 0.00000000000000000000, 0.00000000000000000000, 0.00000000000000000000, 0.00000000000000000000, 0.00000000000000000000, 0.00000000000000000000, 0.00000000000000000000, 4.00000000000000000000, 0.00000000000000000000, 0.00000000000000000000, 4.00000000000000000000, 4.00000000000000000000
42.00000000000000000000, 0.00000000000000000000, 4302.05117685241750000000, 4869.23065016255900000000, 3918.97426314294630000000, 4770.25629360843780000000, 3983.58964617827860000000, 4645.64091204029680000000, 4311.28194585746500000000, 4409.74348191130500000000, 4395.89732840373380000000, 4192.30758979240820000000, 4418.46143041607230000000, 3754.87170305321250000000, 3926.15375014687200000000, 4362.56399588550630000000, 0.00000000000000000000, 1750.00000000000000000000, 1729.00000000000000000000, 0.00000000000000000000, 0.00000000000000000000, 234.00000000000000000000, 353.00000000000000000000, 0.00000000000000000000, 0.00000000000000000000, 0.00000000000000000000, 0.00000000000000000000, 0.00000000000000000000, 0.00000000000000000000, 0.00000000000000000000, 0.00000000000000000000, 0.00000000000000000000, 0.00000000000000000000, 0.00000000000000000000, 4.00000000000000000000, 0.00000000000000000000, 0.00000000000000000000, 4.00000000000000000000, 4.00000000000000000000
43.00000000000000000000, 0.00000000000000000000, 4295.89733084905220000000, 4857.94859915638970000000, 3914.87169914070270000000, 4767.69219110703580000000, 3985.12810767911970000000, 4647.69219404141860000000, 4316.92297136055000000000, 4413.33322541326830000000, 4393.33322590233180000000, 4193.84605129324970000000, 4422.05117391803470000000, 3753.84606205265210000000, 3927.17939114743290000000, 4358.46143188326370000000, 0.00000000000000000000, 1749.00000000000000000000, 1730.00000000000000000000, 0.00000000000000000000, 0.00000000000000000000, 234.00000000000000000000, 361.00000000000000000000, 0.00000000000000000000, 0.00000000000000000000, 0.00000000000000000000, 0.00000000000000000000, 0.00000000000000000000, 0.00000000000000000000, 0.00000000000000000000, 0.00000000000000000000, 0.00000000000000000000, 0.00000000000000000000, 0.00000000000000000000, 4.00000000000000000000, 0.00000000000000000000, 0.00000000000000000000, 4.00000000000000000000, 4.00000000000000000000
44.00000000000000000000, 0.00000000000000000000, 4302.05117685241750000000, 4860.51270165779170000000, 3917.43580164210470000000, 4778.46142161292480000000, 3994.35887668416760000000, 4648.20501454169880000000, 4319.99989436223220000000, 4426.66655842055840000000, 4404.10245640822090000000, 4194.35887179352990000000, 4430.25630192252170000000, 3759.48708755573630000000, 3929.74349364883480000000, 4362.05117538522610000000, 0.00000000000000000000, 1751.00000000000000000000, 1729.00000000000000000000, 0.00000000000000000000, 0.00000000000000000000, 234.00000000000000000000, 369.00000000000000000000, 0.00000000000000000000, 0.00000000000000000000, 0.00000000000000000000, 0.00000000000000000000, 0.00000000000000000000, 0.00000000000000000000, 0.00000000000000000000, 0.00000000000000000000, 0.00000000000000000000, 0.00000000000000000000, 0.00000000000000000000, 4.00000000000000000000, 0.00000000000000000000, 0.00000000000000000000, 4.00000000000000000000, 4.00000000000000000000
45.00000000000000000000, 0.00000000000000000000, 4308.20502285578280000000, 4870.25629116311940000000, 3922.05118614462840000000, 4779.99988311376640000000, 3998.46144068641070000000, 4646.15373254057700000000, 4315.38450985970850000000, 4430.25630192252170000000, 4407.69219991018330000000, 4195.89733329437150000000, 4434.35886592476530000000, 3766.66657455966240000000, 3930.76913464939570000000, 4367.17938038803090000000, 0.00000000000000000000, 1749.00000000000000000000, 1730.00000000000000000000, 0.00000000000000000000, 0.00000000000000000000, 234.00000000000000000000, 376.00000000000000000000, 0.00000000000000000000, 0.00000000000000000000, 0.00000000000000000000, 0.00000000000000000000, 0.00000000000000000000, 0.00000000000000000000, 0.00000000000000000000, 0.00000000000000000000, 0.00000000000000000000, 0.00000000000000000000, 0.00000000000000000000, 4.00000000000000000000, 0.00000000000000000000, 0.00000000000000000000, 4.00000000000000000000, 4.00000000000000000000
46.00000000000000000000, 0.00000000000000000000, 4305.64092035438080000000, 4872.82039366452140000000, 3920.51272464378740000000, 4772.82039610984070000000, 3997.43579968584980000000, 4642.05116853833440000000, 4308.71784335606300000000, 4412.82040491298720000000, 4390.25630290064960000000, 4193.33323079296950000000, 4428.71784042168020000000, 3766.15375405938180000000, 3927.17939114743290000000, 4363.58963688606760000000, 0.00000000000000000000, 1750.00000000000000000000, 1731.00000000000000000000, 0.00000000000000000000, 0.00000000000000000000, 234.00000000000000000000, 384.00000000000000000000, 0.00000000000000000000, 0.00000000000000000000, 0.00000000000000000000, 0.00000000000000000000, 0.00000000000000000000, 0.00000000000000000000, 0.00000000000000000000, 0.00000000000000000000, 0.00000000000000000000, 0.00000000000000000000, 0.00000000000000000000, 4.00000000000000000000, 0.00000000000000000000, 0.00000000000000000000, 4.00000000000000000000, 4.00000000000000000000
47.00000000000000000000, 0.00000000000000000000, 4305.12809985409970000000, 4874.87167566564310000000, 3921.53836564434820000000, 4771.79475510927930000000, 4001.02554318781270000000, 4639.99988653721270000000, 4306.15374085466100000000, 4405.64091790906150000000, 4390.25630290064960000000, 4196.92297429493190000000, 4427.17937892083960000000, 3765.64093355910150000000, 3927.17939114743290000000, 4365.12809838690920000000, 0.00000000000000000000, 1749.00000000000000000000, 1732.00000000000000000000, 0.00000000000000000000, 0.00000000000000000000, 234.00000000000000000000, 392.00000000000000000000, 0.00000000000000000000, 0.00000000000000000000, 0.00000000000000000000, 0.00000000000000000000, 0.00000000000000000000, 0.00000000000000000000, 0.00000000000000000000, 0.00000000000000000000, 0.00000000000000000000, 0.00000000000000000000, 0.00000000000000000000, 4.00000000000000000000, 0.00000000000000000000, 0.00000000000000000000, 4.00000000000000000000, 4.00000000000000000000
48.00000000000000000000, 0.00000000000000000000, 4312.30758685802630000000, 4877.94859866732530000000, 3926.15375014687200000000, 4777.43578061236440000000, 4001.02554318781270000000, 4644.10245053945530000000, 4313.84604835886690000000, 4419.99989191691380000000, 4407.17937940990300000000, 4208.71784580138140000000, 4434.35886592476530000000, 3766.66657455966240000000, 3930.76913464939570000000, 4372.30758539083490000000, 0.00000000000000000000, 1750.00000000000000000000, 1733.00000000000000000000, 0.00000000000000000000, 0.00000000000000000000, 234.00000000000000000000, 400.00000000000000000000, 0.00000000000000000000, 0.00000000000000000000, 0.00000000000000000000, 0.00000000000000000000, 0.00000000000000000000, 0.00000000000000000000, 0.00000000000000000000, 0.00000000000000000000, 0.00000000000000000000, 0.00000000000000000000, 0.00000000000000000000, 4.00000000000000000000, 0.00000000000000000000, 0.00000000000000000000, 4.00000000000000000000, 4.00000000000000000000
49.00000000000000000000, 0.00000000000000000000, 4309.23066385634320000000, 4870.76911166339960000000, 3922.56400664490910000000, 4778.97424211320500000000, 3990.76913318220430000000, 4648.20501454169880000000, 4316.92297136055000000000, 4426.15373792027820000000, 4403.58963590793970000000, 4202.05117929773590000000, 4428.20501992140000000000, 3759.99990805601690000000, 3926.15375014687200000000, 4363.58963688606760000000, 0.00000000000000000000, 1749.00000000000000000000, 1734.00000000000000000000, 0.00000000000000000000, 0.00000000000000000000, 234.00000000000000000000, 408.00000000000000000000, 0.00000000000000000000, 0.00000000000000000000, 0.00000000000000000000, 0.00000000000000000000, 0.00000000000000000000, 0.00000000000000000000, 0.00000000000000000000, 0.00000000000000000000, 0.00000000000000000000, 0.00000000000000000000, 0.00000000000000000000, 4.00000000000000000000, 0.00000000000000000000, 0.00000000000000000000, 4.00000000000000000000, 4.00000000000000000000
50.00000000000000000000, 0.00000000000000000000, 4297.43579234989370000000, 4859.99988115751150000000, 3915.89734014126360000000, 4768.71783210759710000000, 3986.66656917996120000000, 4645.12809154001660000000, 4312.82040735830650000000, 4419.99989191691380000000, 4391.28194390121010000000, 4186.15374378904290000000, 4419.48707141663270000000, 3751.28195955124970000000, 3918.46144264266560000000, 4346.15373987653310000000, 0.00000000000000000000, 1750.00000000000000000000, 1736.00000000000000000000, 0.00000000000000000000, 0.00000000000000000000, 234.00000000000000000000, 415.00000000000000000000, 0.00000000000000000000, 0.00000000000000000000, 0.00000000000000000000, 0.00000000000000000000, 0.00000000000000000000, 0.00000000000000000000, 0.00000000000000000000, 0.00000000000000000000, 0.00000000000000000000, 0.00000000000000000000, 0.00000000000000000000, 4.00000000000000000000, 0.00000000000000000000, 0.00000000000000000000, 4.00000000000000000000, 4.00000000000000000000
51.00000000000000000000, 0.00000000000000000000, 4296.41015134933330000000, 4859.99988115751150000000, 3915.89734014126360000000, 4761.02552460339030000000, 3992.30759468304590000000, 4642.56398903861460000000, 4317.43579186083020000000, 4422.56399441831580000000, 4395.89732840373380000000, 4190.76912829156750000000, 4429.23066092196130000000, 3754.35888255293230000000, 3924.61528864603090000000, 4347.69220137737470000000, 0.00000000000000000000, 1750.00000000000000000000, 1735.00000000000000000000, 0.00000000000000000000, 0.00000000000000000000, 234.00000000000000000000, 423.00000000000000000000, 0.00000000000000000000, 0.00000000000000000000, 0.00000000000000000000, 0.00000000000000000000, 0.00000000000000000000, 0.00000000000000000000, 0.00000000000000000000, 0.00000000000000000000, 0.00000000000000000000, 0.00000000000000000000, 0.00000000000000000000, 4.00000000000000000000, 0.00000000000000000000, 0.00000000000000000000, 4.00000000000000000000, 4.00000000000000000000
52.00000000000000000000, 0.00000000000000000000, 4295.38451034877200000000, 4859.99988115751150000000, 3913.33323763986160000000, 4762.05116560395160000000, 3989.23067168136320000000, 4649.23065554226010000000, 4326.66656086587770000000, 4429.23066092196130000000, 4406.66655890962280000000, 4191.79476929212800000000, 4427.69219942111980000000, 3754.87170305321250000000, 3924.10246814575020000000, 4354.87168838130040000000, 0.00000000000000000000, 1749.00000000000000000000, 1738.00000000000000000000, 0.00000000000000000000, 0.00000000000000000000, 234.00000000000000000000, 431.00000000000000000000, 0.00000000000000000000, 0.00000000000000000000, 0.00000000000000000000, 0.00000000000000000000, 0.00000000000000000000, 0.00000000000000000000, 0.00000000000000000000, 0.00000000000000000000, 0.00000000000000000000, 0.00000000000000000000, 0.00000000000000000000, 4.00000000000000000000, 0.00000000000000000000, 0.00000000000000000000, 4.00000000000000000000, 4.00000000000000000000
53.00000000000000000000, 0.00000000000000000000, 4283.07681834204230000000, 4853.33321465386600000000, 3905.64093013565530000000, 4758.97424260226940000000, 3976.41015917435290000000, 4654.35886054506410000000, 4328.20502236671840000000, 4425.12809691971780000000, 4403.07681540765950000000, 4178.46143628483700000000, 4408.20502041046350000000, 3744.61529304760420000000, 3908.71785313733790000000, 4348.71784237793510000000, 0.00000000000000000000, 1750.00000000000000000000, 1737.00000000000000000000, 0.00000000000000000000, 0.00000000000000000000, 234.00000000000000000000, 439.00000000000000000000, 0.00000000000000000000, 0.00000000000000000000, 0.00000000000000000000, 0.00000000000000000000, 0.00000000000000000000, 0.00000000000000000000, 0.00000000000000000000, 0.00000000000000000000, 0.00000000000000000000, 0.00000000000000000000, 0.00000000000000000000, 4.00000000000000000000, 0.00000000000000000000, 0.00000000000000000000, 4.00000000000000000000, 4.00000000000000000000
54.00000000000000000000, 0.00000000000000000000, 4282.05117734148100000000, 4856.92295815582840000000, 3907.17939163649630000000, 4758.46142210198830000000, 3977.43580017491380000000, 4649.23065554226010000000, 4328.71784286699950000000, 4423.07681491859600000000, 4397.94861040485560000000, 4181.02553878623890000000, 4412.82040491298720000000, 3744.10247254732390000000, 3911.28195563873990000000, 4348.20502187765490000000, 0.00000000000000000000, 1748.00000000000000000000, 1739.00000000000000000000, 0.00000000000000000000, 0.00000000000000000000, 234.00000000000000000000, 447.00000000000000000000, 0.00000000000000000000, 0.00000000000000000000, 0.00000000000000000000, 0.00000000000000000000, 0.00000000000000000000, 0.00000000000000000000, 0.00000000000000000000, 0.00000000000000000000, 0.00000000000000000000, 0.00000000000000000000, 0.00000000000000000000, 4.00000000000000000000, 0.00000000000000000000, 0.00000000000000000000, 4.00000000000000000000, 4.00000000000000000000
55.00000000000000000000, 0.00000000000000000000, 4295.89733084905220000000, 4859.99988115751150000000, 3913.84605814014180000000, 4765.12808860563380000000, 3989.23067168136320000000, 4639.48706603693150000000, 4325.64091986531640000000, 4426.66655842055840000000, 4405.12809740878130000000, 4193.33323079296950000000, 4427.17937892083960000000, 3756.92298505433430000000, 3926.15375014687200000000, 4357.94861138298260000000, 0.00000000000000000000, 1750.00000000000000000000, 1739.00000000000000000000, 0.00000000000000000000, 0.00000000000000000000, 234.00000000000000000000, 455.00000000000000000000, 0.00000000000000000000, 0.00000000000000000000, 0.00000000000000000000, 0.00000000000000000000, 0.00000000000000000000, 0.00000000000000000000, 0.00000000000000000000, 0.00000000000000000000, 0.00000000000000000000, 0.00000000000000000000, 0.00000000000000000000, 4.00000000000000000000, 0.00000000000000000000, 0.00000000000000000000, 4.00000000000000000000, 4.00000000000000000000
56.00000000000000000000, 0.00000000000000000000, 4298.46143335045510000000, 4858.46141965666990000000, 3919.99990414350710000000, 4768.20501160731690000000, 3996.41015868528890000000, 4636.92296353552960000000, 4310.25630485690450000000, 4410.76912291186640000000, 4396.92296940429420000000, 4189.23066679072600000000, 4423.07681491859600000000, 3764.61529255854070000000, 3928.20503214799370000000, 4363.58963688606760000000, 0.00000000000000000000, 1748.00000000000000000000, 1739.00000000000000000000, 0.00000000000000000000, 0.00000000000000000000, 234.00000000000000000000, 462.00000000000000000000, 0.00000000000000000000, 0.00000000000000000000, 0.00000000000000000000, 0.00000000000000000000, 0.00000000000000000000, 0.00000000000000000000, 0.00000000000000000000, 0.00000000000000000000, 0.00000000000000000000, 0.00000000000000000000, 0.00000000000000000000, 4.00000000000000000000, 0.00000000000000000000, 0.00000000000000000000, 4.00000000000000000000, 4.00000000000000000000
57.00000000000000000000, 0.00000000000000000000, 4291.28194634652850000000, 4861.53834265835210000000, 3921.02554514406760000000, 4766.15372960619520000000, 3995.89733818500870000000, 4641.02552753777310000000, 4304.61527935381950000000, 4397.94861040485560000000, 4382.56399539644280000000, 4184.61528228820230000000, 4417.94860991579210000000, 3761.02554905657780000000, 3918.46144264266560000000, 4361.02553438466570000000, 0.00000000000000000000, 1749.00000000000000000000, 1739.00000000000000000000, 0.00000000000000000000, 0.00000000000000000000, 234.00000000000000000000, 470.00000000000000000000, 0.00000000000000000000, 0.00000000000000000000, 0.00000000000000000000, 0.00000000000000000000, 0.00000000000000000000, 0.00000000000000000000, 0.00000000000000000000, 0.00000000000000000000, 0.00000000000000000000, 0.00000000000000000000, 0.00000000000000000000, 4.00000000000000000000, 0.00000000000000000000, 0.00000000000000000000, 4.00000000000000000000, 4.00000000000000000000
58.00000000000000000000, 0.00000000000000000000, 4283.58963884232250000000, 4853.84603515414620000000, 3909.74349413789880000000, 4760.51270410311010000000, 3984.61528717883950000000, 4646.15373254057700000000, 4321.53835586307380000000, 4417.94860991579210000000, 4397.94861040485560000000, 4186.66656428932400000000, 4416.41014841495050000000, 3750.76913905096940000000, 3912.30759663930080000000, 4352.30758587989840000000, 0.00000000000000000000, 1748.00000000000000000000, 1738.00000000000000000000, 0.00000000000000000000, 0.00000000000000000000, 234.00000000000000000000, 478.00000000000000000000, 0.00000000000000000000, 0.00000000000000000000, 0.00000000000000000000, 0.00000000000000000000, 0.00000000000000000000, 0.00000000000000000000, 0.00000000000000000000, 0.00000000000000000000, 0.00000000000000000000, 0.00000000000000000000, 0.00000000000000000000, 4.00000000000000000000, 0.00000000000000000000, 0.00000000000000000000, 4.00000000000000000000, 4.00000000000000000000
59.00000000000000000000, 0.00000000000000000000, 4284.10245934260270000000, 4846.15372764994030000000, 3904.61528913509440000000, 4753.33321709918440000000, 3980.51272317659600000000, 4650.76911704310080000000, 4327.69220186643820000000, 4422.56399441831580000000, 4401.53835390681890000000, 4186.15374378904290000000, 4417.94860991579210000000, 3750.25631855068880000000, 3917.43580164210470000000, 4350.25630387877660000000, 0.00000000000000000000, 1749.00000000000000000000, 1739.00000000000000000000, 0.00000000000000000000, 0.00000000000000000000, 234.00000000000000000000, 486.00000000000000000000, 0.00000000000000000000, 0.00000000000000000000, 0.00000000000000000000, 0.00000000000000000000, 0.00000000000000000000, 0.00000000000000000000, 0.00000000000000000000, 0.00000000000000000000, 0.00000000000000000000, 0.00000000000000000000, 0.00000000000000000000, 4.00000000000000000000, 0.00000000000000000000, 0.00000000000000000000, 4.00000000000000000000, 4.00000000000000000000
60.00000000000000000000, 0.00000000000000000000, 4298.46143335045510000000, 4863.07680415919370000000, 3920.51272464378740000000, 4762.56398610423180000000, 3999.48708168697160000000, 4648.71783504197900000000, 4309.74348435662340000000, 4402.05117440709910000000, 4377.94861089391910000000, 4192.82041029268840000000, 4436.41014792588700000000, 3767.17939505994260000000, 3932.30759615023680000000, 4366.15373938746960000000, 0.00000000000000000000, 1749.00000000000000000000, 1738.00000000000000000000, 0.00000000000000000000, 0.00000000000000000000, 234.00000000000000000000, 494.00000000000000000000, 0.00000000000000000000, 0.00000000000000000000, 0.00000000000000000000, 0.00000000000000000000, 0.00000000000000000000, 0.00000000000000000000, 0.00000000000000000000, 0.00000000000000000000, 0.00000000000000000000, 0.00000000000000000000, 0.00000000000000000000, 4.00000000000000000000, 0.00000000000000000000, 0.00000000000000000000, 4.00000000000000000000, 4.00000000000000000000
61.00000000000000000000, 0.00000000000000000000, 4314.35886885914720000000, 4879.99988066844710000000, 3929.23067314855460000000, 4771.79475510927930000000, 4011.28195319342100000000, 4641.02552753777310000000, 4294.35886934821160000000, 4407.69219991018330000000, 4390.25630290064960000000, 4208.20502530110120000000, 4448.20501943233650000000, 3781.02554856751390000000, 3941.02554465500410000000, 4380.51271339532100000000, 0.00000000000000000000, 1750.00000000000000000000, 1738.00000000000000000000, 0.00000000000000000000, 0.00000000000000000000, 234.00000000000000000000, 501.00000000000000000000, 0.00000000000000000000, 0.00000000000000000000, 0.00000000000000000000, 0.00000000000000000000, 0.00000000000000000000, 0.00000000000000000000, 0.00000000000000000000, 0.00000000000000000000, 0.00000000000000000000, 0.00000000000000000000, 0.00000000000000000000, 4.00000000000000000000, 0.00000000000000000000, 0.00000000000000000000, 4.00000000000000000000, 4.00000000000000000000
62.00000000000000000000, 0.00000000000000000000, 4316.41015086026890000000, 4876.41013716648470000000, 3920.51272464378740000000, 4757.94860160170810000000, 4008.20503019173880000000, 4640.51270703749290000000, 4284.10245934260270000000, 4422.05117391803470000000, 4414.35886641382880000000, 4213.84605080418620000000, 4446.15373743121470000000, 3777.94862556583170000000, 3939.48708315416300000000, 4379.99989289504080000000, 0.00000000000000000000, 1749.00000000000000000000, 1738.00000000000000000000, 0.00000000000000000000, 0.00000000000000000000, 234.00000000000000000000, 509.00000000000000000000, 0.00000000000000000000, 0.00000000000000000000, 0.00000000000000000000, 0.00000000000000000000, 0.00000000000000000000, 0.00000000000000000000, 0.00000000000000000000, 0.00000000000000000000, 0.00000000000000000000, 0.00000000000000000000, 0.00000000000000000000, 4.00000000000000000000, 0.00000000000000000000, 0.00000000000000000000, 4.00000000000000000000, 4.00000000000000000000
63.00000000000000000000, 0.00000000000000000000, 4308.20502285578280000000, 4873.33321416480160000000, 3918.46144264266560000000, 4748.71783259666060000000, 4008.71785069201910000000, 4647.69219404141860000000, 4284.61527984288300000000, 4406.66655890962280000000, 4393.84604640261200000000, 4204.10246129885760000000, 4447.17937843177510000000, 3770.76913856190550000000, 3937.94862165332140000000, 4375.89732889279730000000, 0.00000000000000000000, 1750.00000000000000000000, 1739.00000000000000000000, 0.00000000000000000000, 0.00000000000000000000, 234.00000000000000000000, 517.00000000000000000000, 0.00000000000000000000, 0.00000000000000000000, 0.00000000000000000000, 0.00000000000000000000, 0.00000000000000000000, 0.00000000000000000000, 0.00000000000000000000, 0.00000000000000000000, 0.00000000000000000000, 0.00000000000000000000, 0.00000000000000000000, 4.00000000000000000000, 0.00000000000000000000, 0.00000000000000000000, 4.00000000000000000000, 4.00000000000000000000
64.00000000000000000000, 0.00000000000000000000, 4294.87168984849180000000, 4866.66654766115700000000, 3913.84605814014180000000, 4754.35885809974570000000, 3994.35887668416760000000, 4650.25629654282060000000, 4304.61527935381950000000, 4394.87168740317340000000, 4374.35886739195670000000, 4184.61528228820230000000, 4432.82040442392370000000, 3758.97426705545600000000, 3924.61528864603090000000, 4359.48707288382410000000, 378.00000000000000000000, 1751.00000000000000000000, 1736.00000000000000000000, 0.00000000000000000000, 0.00000000000000000000, 234.00000000000000000000, 525.00000000000000000000, 0.00000000000000000000, 0.00000000000000000000, 3.00000000000000000000, 0.00000000000000000000, 0.00000000000000000000, 0.00000000000000000000, 0.00000000000000000000, 0.00000000000000000000, 0.00000000000000000000, 0.00000000000000000000, 0.00000000000000000000, 4.00000000000000000000, 0.00000000000000000000, 0.00000000000000000000, 4.00000000000000000000, 4.00000000000000000000
65.00000000000000000000, 0.00000000000000000000, 4286.15374134372450000000, 4858.46141965666990000000, 3906.66657113621610000000, 4754.87167860002590000000, 3982.05118467743750000000, 4645.12809154001660000000, 4312.30758685802630000000, 4402.05117440709910000000, 4387.17937989896650000000, 4178.46143628483700000000, 4413.84604591354860000000, 3743.58965204704370000000, 3912.30759663930080000000, 4343.58963737513110000000, 273.00000000000000000000, 1750.00000000000000000000, 1738.00000000000000000000, 0.00000000000000000000, 0.00000000000000000000, 234.00000000000000000000, 533.00000000000000000000, 0.00000000000000000000, 0.00000000000000000000, 3.00000000000000000000, 2.00000000000000000000, 0.00000000000000000000, 0.00000000000000000000, 0.00000000000000000000, 0.00000000000000000000, 0.00000000000000000000, 0.00000000000000000000, 0.00000000000000000000, 4.00000000000000000000, 0.00000000000000000000, 0.00000000000000000000, 4.00000000000000000000, 4.00000000000000000000
66.00000000000000000000, 0.00000000000000000000, 4293.33322834765020000000, 4862.56398365891350000000, 3909.23067363761810000000, 4749.74347359722200000000, 4000.51272268753250000000, 4641.02552753777310000000, 4299.48707435101550000000, 4406.15373840934260000000, 4399.48707190569710000000, 4186.15374378904290000000, 4416.92296891523070000000, 3743.07683154676310000000, 3918.46144264266560000000, 4347.17938087709440000000, 469.00000000000000000000, 1751.00000000000000000000, 1735.00000000000000000000, 0.00000000000000000000, 0.00000000000000000000, 234.00000000000000000000, 541.00000000000000000000, 4.00000000000000000000, 0.00000000000000000000, 3.00000000000000000000, 2.00000000000000000000, 0.00000000000000000000, 0.00000000000000000000, 0.00000000000000000000, 0.00000000000000000000, 0.00000000000000000000, 0.00000000000000000000, 0.00000000000000000000, 4.00000000000000000000, 0.00000000000000000000, 0.00000000000000000000, 4.00000000000000000000, 4.00000000000000000000
67.00000000000000000000, 0.00000000000000000000, 4301.02553585185710000000, 4866.66654766115700000000, 3915.38451964098340000000, 4757.94860160170810000000, 4006.66656869089730000000, 4645.12809154001660000000, 4305.12809985409970000000, 4406.15373840934260000000, 4404.61527690850110000000, 4185.64092328876270000000, 4421.53835341775450000000, 3753.33324155237140000000, 3926.66657064715220000000, 4351.28194487933800000000, 408.00000000000000000000, 1750.00000000000000000000, 1734.00000000000000000000, 0.00000000000000000000, 0.00000000000000000000, 234.00000000000000000000, 548.00000000000000000000, 4.00000000000000000000, 4.00000000000000000000, 3.00000000000000000000, 2.00000000000000000000, 0.00000000000000000000, 0.00000000000000000000, 0.00000000000000000000, 0.00000000000000000000, 0.00000000000000000000, 0.00000000000000000000, 0.00000000000000000000, 4.00000000000000000000, 0.00000000000000000000, 0.00000000000000000000, 4.00000000000000000000, 4.00000000000000000000
68.00000000000000000000, 0.00000000000000000000, 4301.53835635213730000000, 4867.17936816143720000000, 3919.48708364322650000000, 4767.69219110703580000000, 3989.74349218164340000000, 4647.17937354113840000000, 4317.43579186083020000000, 4399.99989240597730000000, 4392.82040540205160000000, 4185.12810278848250000000, 4424.10245591915650000000, 3759.99990805601690000000, 3925.64092964659180000000, 4352.30758587989840000000, 495.00000000000000000000, 1750.00000000000000000000, 1733.00000000000000000000, 0.00000000000000000000, 0.00000000000000000000, 234.00000000000000000000, 556.00000000000000000000, 4.00000000000000000000, 4.00000000000000000000, 3.00000000000000000000, 2.00000000000000000000, 4.00000000000000000000, 0.00000000000000000000, 0.00000000000000000000, 0.00000000000000000000, 0.00000000000000000000, 0.00000000000000000000, 0.00000000000000000000, 4.00000000000000000000, 0.00000000000000000000, 0.00000000000000000000, 4.00000000000000000000, 4.00000000000000000000
69.00000000000000000000, 0.00000000000000000000, 4306.66656135494120000000, 4867.69218866171740000000, 3922.05118614462840000000, 4758.97424260226940000000, 3995.89733818500870000000, 4643.07680953889480000000, 4304.61527935381950000000, 4391.79476440149030000000, 4377.43579039363890000000, 4193.84605129324970000000, 4437.43578892644750000000, 3766.66657455966240000000, 3926.66657064715220000000, 4363.58963688606760000000, 223.00000000000000000000, 1750.00000000000000000000, 1732.00000000000000000000, 0.00000000000000000000, 0.00000000000000000000, 234.00000000000000000000, 564.00000000000000000000, 4.00000000000000000000, 4.00000000000000000000, 3.00000000000000000000, 2.00000000000000000000, 4.00000000000000000000, 2.00000000000000000000, 0.00000000000000000000, 0.00000000000000000000, 0.00000000000000000000, 0.00000000000000000000, 0.00000000000000000000, 4.00000000000000000000, 0.00000000000000000000, 0.00000000000000000000, 4.00000000000000000000, 4.00000000000000000000
70.00000000000000000000, 0.00000000000000000000, 4307.69220235550260000000, 4866.15372716087590000000, 3918.97426314294630000000, 4749.23065309694080000000, 4004.61528668977550000000, 4645.64091204029680000000, 4298.46143335045510000000, 4396.41014890401400000000, 4384.10245689728440000000, 4192.30758979240820000000, 4437.43578892644750000000, 3769.23067706106440000000, 3927.17939114743290000000, 4372.30758539083490000000, 487.00000000000000000000, 1750.00000000000000000000, 1731.00000000000000000000, 0.00000000000000000000, 0.00000000000000000000, 234.00000000000000000000, 572.00000000000000000000, 4.00000000000000000000, 4.00000000000000000000, 3.00000000000000000000, 2.00000000000000000000, 4.00000000000000000000, 2.00000000000000000000, 4.00000000000000000000, 0.00000000000000000000, 0.00000000000000000000, 0.00000000000000000000, 0.00000000000000000000, 4.00000000000000000000, 0.00000000000000000000, 0.00000000000000000000, 4.00000000000000000000, 4.00000000000000000000
71.00000000000000000000, 0.00000000000000000000, 4308.20502285578280000000, 4869.23065016255900000000, 3918.97426314294630000000, 4756.92296060114770000000, 3990.76913318220430000000, 4654.35886054506410000000, 4315.38450985970850000000, 4402.56399490737930000000, 4385.64091839812590000000, 4182.56400028708050000000, 4429.74348142224150000000, 3766.15375405938180000000, 3925.64092964659180000000, 4373.33322639139530000000, 413.00000000000000000000, 1751.00000000000000000000, 1730.00000000000000000000, 0.00000000000000000000, 0.00000000000000000000, 234.00000000000000000000, 580.00000000000000000000, 4.00000000000000000000, 4.00000000000000000000, 3.00000000000000000000, 2.00000000000000000000, 4.00000000000000000000, 2.00000000000000000000, 4.00000000000000000000, 3.00000000000000000000, 0.00000000000000000000, 0.00000000000000000000, 0.00000000000000000000, 4.00000000000000000000, 0.00000000000000000000, 0.00000000000000000000, 4.00000000000000000000, 4.00000000000000000000
72.00000000000000000000, 0.00000000000000000000, 4321.53835586307380000000, 4880.51270116872820000000, 3931.79477564995660000000, 4768.20501160731690000000, 3996.41015868528890000000, 4649.23065554226010000000, 4317.94861236111050000000, 4405.12809740878130000000, 4378.97425189448040000000, 4187.69220528988440000000, 4441.02553242841080000000, 3771.79477956246640000000, 3936.41016015248030000000, 4384.61527739756460000000, 416.00000000000000000000, 1750.00000000000000000000, 1730.00000000000000000000, 0.00000000000000000000, 0.00000000000000000000, 234.00000000000000000000, 587.00000000000000000000, 4.00000000000000000000, 4.00000000000000000000, 3.00000000000000000000, 2.00000000000000000000, 4.00000000000000000000, 2.00000000000000000000, 4.00000000000000000000, 3.00000000000000000000, 4.00000000000000000000, 0.00000000000000000000, 0.00000000000000000000, 4.00000000000000000000, 0.00000000000000000000, 0.00000000000000000000, 4.00000000000000000000, 4.00000000000000000000
73.00000000000000000000, 0.00000000000000000000, 4319.99989436223220000000, 4879.48706016816690000000, 3932.30759615023680000000, 4760.51270410311010000000, 4011.79477369370170000000, 4637.43578403580980000000, 4298.46143335045510000000, 4410.25630241158520000000, 4389.23066190008830000000, 4194.35887179352990000000, 4445.64091693093450000000, 3775.89734356470990000000, 3941.02554465500410000000, 4387.69220039924680000000, 411.00000000000000000000, 1750.00000000000000000000, 1730.00000000000000000000, 0.00000000000000000000, 0.00000000000000000000, 234.00000000000000000000, 595.00000000000000000000, 4.00000000000000000000, 4.00000000000000000000, 3.00000000000000000000, 2.00000000000000000000, 4.00000000000000000000, 2.00000000000000000000, 4.00000000000000000000, 3.00000000000000000000, 4.00000000000000000000, 4.00000000000000000000, 0.00000000000000000000, 4.00000000000000000000, 0.00000000000000000000, 0.00000000000000000000, 4.00000000000000000000, 4.00000000000000000000
74.00000000000000000000, 0.00000000000000000000, 4301.02553585185710000000, 4869.74347066283920000000, 3915.38451964098340000000, 4747.17937109581910000000, 4007.17938919117800000000, 4641.02552753777310000000, 4295.89733084905220000000, 4410.25630241158520000000, 4395.38450790345360000000, 4191.28194879184780000000, 4431.28194292308220000000, 3761.02554905657780000000, 3927.17939114743290000000, 4365.64091888718940000000, 358.00000000000000000000, 1749.00000000000000000000, 1729.00000000000000000000, 0.00000000000000000000, 0.00000000000000000000, 234.00000000000000000000, 603.00000000000000000000, 4.00000000000000000000, 4.00000000000000000000, 3.00000000000000000000, 2.00000000000000000000, 4.00000000000000000000, 2.00000000000000000000, 4.00000000000000000000, 3.00000000000000000000, 4.00000000000000000000, 4.00000000000000000000, 0.00000000000000000000, 4.00000000000000000000, 4.00000000000000000000, 0.00000000000000000000, 4.00000000000000000000, 4.00000000000000000000
75.00000000000000000000, 0.00000000000000000000, 4304.10245885353920000000, 4874.35885516536290000000, 3914.35887864042250000000, 4749.23065309694080000000, 4007.69220969145820000000, 4650.76911704310080000000, 4308.20502285578280000000, 4408.71784091074460000000, 4386.66655939868630000000, 4190.25630779128640000000, 4425.12809691971780000000, 3755.38452355349320000000, 3919.99990414350710000000, 4355.38450888158060000000, 445.00000000000000000000, 1749.00000000000000000000, 1728.00000000000000000000, 0.00000000000000000000, 0.00000000000000000000, 234.00000000000000000000, 611.00000000000000000000, 4.00000000000000000000, 4.00000000000000000000, 3.00000000000000000000, 2.00000000000000000000, 4.00000000000000000000, 2.00000000000000000000, 4.00000000000000000000, 3.00000000000000000000, 4.00000000000000000000, 4.00000000000000000000, 0.00000000000000000000, 4.00000000000000000000, 4.00000000000000000000, 4.00000000000000000000, 4.00000000000000000000, 4.00000000000000000000
76.00000000000000000000, 0.00000000000000000000, 4324.10245836447580000000, 4885.12808567125190000000, 3930.76913464939570000000, 4754.87167860002590000000, 4018.46144019734720000000, 4649.74347604254040000000, 4310.76912535718470000000, 4421.53835341775450000000, 4395.89732840373380000000, 4197.43579479521210000000, 4433.84604542448510000000, 3773.33324106330790000000, 3929.23067314855460000000, 4373.84604689167550000000, 427.00000000000000000000, 1750.00000000000000000000, 1728.00000000000000000000, 0.00000000000000000000, 0.00000000000000000000, 234.00000000000000000000, 619.00000000000000000000, 4.00000000000000000000, 4.00000000000000000000, 3.00000000000000000000, 2.00000000000000000000, 4.00000000000000000000, 2.00000000000000000000, 4.00000000000000000000, 3.00000000000000000000, 4.00000000000000000000, 4.00000000000000000000, 4.00000000000000000000, 4.00000000000000000000, 4.00000000000000000000, 4.00000000000000000000, 4.00000000000000000000, 4.00000000000000000000
77.00000000000000000000, 0.00000000000000000000, 4322.56399686363420000000, 4885.12808567125190000000, 3933.84605765107840000000, 4759.99988360282990000000, 4009.23067119229930000000, 4650.25629654282060000000, 4314.87168935942830000000, 4434.87168642504550000000, 4410.76912291186640000000, 4197.94861529549330000000, 4439.48707092756920000000, 3780.51272806723360000000, 3932.30759615023680000000, 4381.53835439588240000000, 444.00000000000000000000, 1750.00000000000000000000, 1728.00000000000000000000, 0.00000000000000000000, 0.00000000000000000000, 234.00000000000000000000, 627.00000000000000000000, 4.00000000000000000000, 4.00000000000000000000, 3.00000000000000000000, 2.00000000000000000000, 4.00000000000000000000, 2.00000000000000000000, 4.00000000000000000000, 3.00000000000000000000, 4.00000000000000000000, 4.00000000000000000000, 4.00000000000000000000, 4.00000000000000000000, 4.00000000000000000000, 4.00000000000000000000, 4.00000000000000000000, 4.00000000000000000000
78.00000000000000000000, 0.00000000000000000000, 4310.76912535718470000000, 4874.35885516536290000000, 3921.53836564434820000000, 4765.12808860563380000000, 3990.25631268192410000000, 4650.76911704310080000000, 4321.02553536279270000000, 4429.23066092196130000000, 4410.76912291186640000000, 4191.28194879184780000000, 4434.87168642504550000000, 3765.12811305882090000000, 3923.58964764547000000000, 4361.02553438466570000000, 358.00000000000000000000, 1750.00000000000000000000, 1728.00000000000000000000, 0.00000000000000000000, 0.00000000000000000000, 234.00000000000000000000, 634.00000000000000000000, 4.00000000000000000000, 4.00000000000000000000, 3.00000000000000000000, 2.00000000000000000000, 4.00000000000000000000, 2.00000000000000000000, 4.00000000000000000000, 3.00000000000000000000, 4.00000000000000000000, 4.00000000000000000000, 4.00000000000000000000, 4.00000000000000000000, 4.00000000000000000000, 4.00000000000000000000, 4.00000000000000000000, 4.00000000000000000000
79.00000000000000000000, 0.00000000000000000000, 4309.23066385634320000000, 4869.74347066283920000000, 3918.97426314294630000000, 4759.48706310254970000000, 3992.82041518332610000000, 4645.64091204029680000000, 4307.69220235550260000000, 4409.23066141102480000000, 4401.02553340653780000000, 4186.15374378904290000000, 4427.69219942111980000000, 3756.41016455405410000000, 3921.53836564434820000000, 4349.74348337849640000000, 445.00000000000000000000, 1751.00000000000000000000, 1728.00000000000000000000, 0.00000000000000000000, 0.00000000000000000000, 234.00000000000000000000, 642.00000000000000000000, 4.00000000000000000000, 4.00000000000000000000, 3.00000000000000000000, 2.00000000000000000000, 4.00000000000000000000, 2.00000000000000000000, 4.00000000000000000000, 3.00000000000000000000, 4.00000000000000000000, 4.00000000000000000000, 4.00000000000000000000, 4.00000000000000000000, 4.00000000000000000000, 4.00000000000000000000, 4.00000000000000000000, 4.00000000000000000000
80.00000000000000000000, 0.00000000000000000000, 4307.69220235550260000000, 4874.87167566564310000000, 3924.61528864603090000000, 4750.25629409750220000000, 4007.17938919117800000000, 4650.76911704310080000000, 4305.12809985409970000000, 4401.53835390681890000000, 4391.79476440149030000000, 4184.10246178792200000000, 4422.56399441831580000000, 3762.05119005713870000000, 3924.10246814575020000000, 4360.51271388438540000000, 427.00000000000000000000, 1751.00000000000000000000, 1728.00000000000000000000, 0.00000000000000000000, 0.00000000000000000000, 234.00000000000000000000, 650.00000000000000000000, 4.00000000000000000000, 4.00000000000000000000, 3.00000000000000000000, 2.00000000000000000000, 4.00000000000000000000, 2.00000000000000000000, 4.00000000000000000000, 3.00000000000000000000, 4.00000000000000000000, 4.00000000000000000000, 4.00000000000000000000, 4.00000000000000000000, 4.00000000000000000000, 4.00000000000000000000, 4.00000000000000000000, 4.00000000000000000000
81.00000000000000000000, 0.00000000000000000000, 4308.71784335606300000000, 4877.94859866732530000000, 3925.12810914631110000000, 4752.30757609862390000000, 4011.28195319342100000000, 4656.41014254618590000000, 4326.66656086587770000000, 4412.82040491298720000000, 4397.43578990457540000000, 4186.15374378904290000000, 4430.25630192252170000000, 3768.20503606050350000000, 3930.25631414911550000000, 4370.25630338971310000000, 444.00000000000000000000, 1751.00000000000000000000, 1728.00000000000000000000, 0.00000000000000000000, 0.00000000000000000000, 234.00000000000000000000, 658.00000000000000000000, 4.00000000000000000000, 4.00000000000000000000, 3.00000000000000000000, 2.00000000000000000000, 4.00000000000000000000, 2.00000000000000000000, 4.00000000000000000000, 3.00000000000000000000, 4.00000000000000000000, 4.00000000000000000000, 4.00000000000000000000, 4.00000000000000000000, 4.00000000000000000000, 4.00000000000000000000, 4.00000000000000000000, 4.00000000000000000000
82.00000000000000000000, 0.00000000000000000000, 4317.43579186083020000000, 4877.94859866732530000000, 3924.10246814575020000000, 4759.48706310254970000000, 4009.23067119229930000000, 4647.17937354113840000000, 4327.17938136615790000000, 4419.48707141663270000000, 4408.20502041046350000000, 4193.84605129324970000000, 4450.76912193373850000000, 3773.33324106330790000000, 3938.97426265388230000000, 4374.35886739195670000000, 358.00000000000000000000, 1751.00000000000000000000, 1728.00000000000000000000, 0.00000000000000000000, 0.00000000000000000000, 234.00000000000000000000, 666.00000000000000000000, 4.00000000000000000000, 4.00000000000000000000, 3.00000000000000000000, 2.00000000000000000000, 4.00000000000000000000, 2.00000000000000000000, 4.00000000000000000000, 3.00000000000000000000, 4.00000000000000000000, 4.00000000000000000000, 4.00000000000000000000, 4.00000000000000000000, 4.00000000000000000000, 4.00000000000000000000, 4.00000000000000000000, 4.00000000000000000000
83.00000000000000000000, 0.00000000000000000000, 4325.12809936503620000000, 4883.07680367013020000000, 3926.66657064715220000000, 4758.97424260226940000000, 4012.82041469426260000000, 4641.53834803805330000000, 4306.66656135494120000000, 4408.20502041046350000000, 4393.84604640261200000000, 4202.05117929773590000000, 4456.41014743682260000000, 3778.46144606611190000000, 3935.89733965219970000000, 4376.92296989335860000000, 445.00000000000000000000, 1752.00000000000000000000, 1726.00000000000000000000, 0.00000000000000000000, 0.00000000000000000000, 234.00000000000000000000, 673.00000000000000000000, 4.00000000000000000000, 4.00000000000000000000, 3.00000000000000000000, 2.00000000000000000000, 4.00000000000000000000, 2.00000000000000000000, 4.00000000000000000000, 3.00000000000000000000, 4.00000000000000000000, 4.00000000000000000000, 4.00000000000000000000, 4.00000000000000000000, 4.00000000000000000000, 4.00000000000000000000, 4.00000000000000000000, 4.00000000000000000000
84.00000000000000000000, 0.00000000000000000000, 4325.64091986531640000000, 4886.15372667181240000000, 3931.79477564995660000000, 4756.41014010086660000000, 4014.87169669538390000000, 4646.15373254057700000000, 4309.23066385634320000000, 4412.82040491298720000000, 4390.76912340092990000000, 4203.07682029829720000000, 4442.56399392925140000000, 3782.05118956807470000000, 3930.25631414911550000000, 4378.97425189448040000000, 427.00000000000000000000, 1751.00000000000000000000, 1727.00000000000000000000, 0.00000000000000000000, 0.00000000000000000000, 234.00000000000000000000, 681.00000000000000000000, 4.00000000000000000000, 4.00000000000000000000, 3.00000000000000000000, 2.00000000000000000000, 4.00000000000000000000, 2.00000000000000000000, 4.00000000000000000000, 3.00000000000000000000, 4.00000000000000000000, 4.00000000000000000000, 4.00000000000000000000, 4.00000000000000000000, 4.00000000000000000000, 4.00000000000000000000, 4.00000000000000000000, 4.00000000000000000000
85.00000000000000000000, 0.00000000000000000000, 4323.07681736391440000000, 4880.51270116872820000000, 3931.79477564995660000000, 4759.48706310254970000000, 4005.12810719005620000000, 4648.20501454169880000000, 4327.69220186643820000000, 4445.12809643065430000000, 4431.79476342336330000000, 4201.53835879745570000000, 4439.99989142784940000000, 3785.64093307003760000000, 3937.43580115304120000000, 4379.48707239476060000000, 444.00000000000000000000, 1753.00000000000000000000, 1727.00000000000000000000, 0.00000000000000000000, 0.00000000000000000000, 234.00000000000000000000, 689.00000000000000000000, 4.00000000000000000000, 4.00000000000000000000, 3.00000000000000000000, 2.00000000000000000000, 4.00000000000000000000, 2.00000000000000000000, 4.00000000000000000000, 3.00000000000000000000, 4.00000000000000000000, 4.00000000000000000000, 4.00000000000000000000, 4.00000000000000000000, 4.00000000000000000000, 4.00000000000000000000, 4.00000000000000000000, 4.00000000000000000000
86.00000000000000000000, 0.00000000000000000000, 4319.99989436223220000000, 4874.87167566564310000000, 3923.58964764547000000000, 4758.46142210198830000000, 3997.43579968584980000000, 4652.30757854394230000000, 4327.69220186643820000000, 4439.99989142784940000000, 4436.41014792588700000000, 4198.97425629605370000000, 4447.17937843177510000000, 3780.51272806723360000000, 3938.97426265388230000000, 4378.97425189448040000000, 358.00000000000000000000, 1752.00000000000000000000, 1728.00000000000000000000, 0.00000000000000000000, 0.00000000000000000000, 234.00000000000000000000, 697.00000000000000000000, 4.00000000000000000000, 4.00000000000000000000, 3.00000000000000000000, 2.00000000000000000000, 4.00000000000000000000, 2.00000000000000000000, 4.00000000000000000000, 3.00000000000000000000, 4.00000000000000000000, 4.00000000000000000000, 4.00000000000000000000, 4.00000000000000000000, 4.00000000000000000000, 4.00000000000000000000, 4.00000000000000000000, 4.00000000000000000000
87.00000000000000000000, 0.00000000000000000000, 4316.92297136055000000000, 4877.94859866732530000000, 3921.53836564434820000000, 4749.74347359722200000000, 4002.05118418837360000000, 4651.28193754338190000000, 4307.69220235550260000000, 4389.74348240036850000000, 4381.02553389560220000000, 4189.23066679072600000000, 4437.94860942672770000000, 3768.20503606050350000000, 3928.20503214799370000000, 4374.87168789223690000000, 445.00000000000000000000, 1753.00000000000000000000, 1729.00000000000000000000, 0.00000000000000000000, 0.00000000000000000000, 234.00000000000000000000, 705.00000000000000000000, 4.00000000000000000000, 4.00000000000000000000, 3.00000000000000000000, 2.00000000000000000000, 4.00000000000000000000, 2.00000000000000000000, 4.00000000000000000000, 3.00000000000000000000, 4.00000000000000000000, 4.00000000000000000000, 4.00000000000000000000, 4.00000000000000000000, 4.00000000000000000000, 4.00000000000000000000, 4.00000000000000000000, 4.00000000000000000000
88.00000000000000000000, 0.00000000000000000000, 4314.87168935942830000000, 4878.97423966788660000000, 3925.64092964659180000000, 4746.66655059553890000000, 4004.61528668977550000000, 4638.97424553665130000000, 4291.28194634652850000000, 4379.99989289504080000000, 4365.12809838690920000000, 4183.58964128764090000000, 4425.64091741999800000000, 3761.02554905657780000000, 3924.10246814575020000000, 4364.61527788662810000000, 427.00000000000000000000, 1753.00000000000000000000, 1729.00000000000000000000, 0.00000000000000000000, 0.00000000000000000000, 234.00000000000000000000, 713.00000000000000000000, 4.00000000000000000000, 4.00000000000000000000, 3.00000000000000000000, 2.00000000000000000000, 4.00000000000000000000, 2.00000000000000000000, 4.00000000000000000000, 3.00000000000000000000, 4.00000000000000000000, 4.00000000000000000000, 4.00000000000000000000, 4.00000000000000000000, 4.00000000000000000000, 4.00000000000000000000, 4.00000000000000000000, 4.00000000000000000000
89.00000000000000000000, 0.00000000000000000000, 4311.28194585746500000000, 4873.33321416480160000000, 3923.07682714518930000000, 4752.82039659890420000000, 3997.43579968584980000000, 4637.43578403580980000000, 4295.89733084905220000000, 4409.23066141102480000000, 4395.38450790345360000000, 4185.64092328876270000000, 4430.25630192252170000000, 3762.05119005713870000000, 3924.61528864603090000000, 4362.05117538522610000000, 444.00000000000000000000, 1753.00000000000000000000, 1730.00000000000000000000, 0.00000000000000000000, 0.00000000000000000000, 234.00000000000000000000, 720.00000000000000000000, 4.00000000000000000000, 4.00000000000000000000, 3.00000000000000000000, 2.00000000000000000000, 4.00000000000000000000, 2.00000000000000000000, 4.00000000000000000000, 3.00000000000000000000, 4.00000000000000000000, 4.00000000000000000000, 4.00000000000000000000, 4.00000000000000000000, 4.00000000000000000000, 4.00000000000000000000, 4.00000000000000000000, 4.00000000000000000000
90.00000000000000000000, 0.00000000000000000000, 4314.87168935942830000000, 4876.41013716648470000000, 3923.58964764547000000000, 4754.35885809974570000000, 3999.48708168697160000000, 4648.71783504197900000000, 4310.76912535718470000000, 4412.30758441270700000000, 4404.10245640822090000000, 4190.76912829156750000000, 4441.53835292869100000000, 3772.82042056302730000000, 3932.30759615023680000000, 4379.99989289504080000000, 358.00000000000000000000, 1752.00000000000000000000, 1730.00000000000000000000, 0.00000000000000000000, 0.00000000000000000000, 234.00000000000000000000, 728.00000000000000000000, 4.00000000000000000000, 4.00000000000000000000, 3.00000000000000000000, 2.00000000000000000000, 4.00000000000000000000, 2.00000000000000000000, 4.00000000000000000000, 3.00000000000000000000, 4.00000000000000000000, 4.00000000000000000000, 4.00000000000000000000, 4.00000000000000000000, 4.00000000000000000000, 4.00000000000000000000, 4.00000000000000000000, 4.00000000000000000000
91.00000000000000000000, 0.00000000000000000000, 4328.20502236671840000000, 4886.15372667181240000000, 3933.33323715079770000000, 4758.97424260226940000000, 4013.33323519454280000000, 4649.74347604254040000000, 4319.48707386195200000000, 4414.35886641382880000000, 4402.56399490737930000000, 4200.51271779689520000000, 4446.66655793149490000000, 3785.64093307003760000000, 3942.56400615584520000000, 4399.48707190569710000000, 445.00000000000000000000, 1753.00000000000000000000, 1732.00000000000000000000, 0.00000000000000000000, 0.00000000000000000000, 234.00000000000000000000, 736.00000000000000000000, 4.00000000000000000000, 4.00000000000000000000, 3.00000000000000000000, 2.00000000000000000000, 4.00000000000000000000, 2.00000000000000000000, 4.00000000000000000000, 3.00000000000000000000, 4.00000000000000000000, 4.00000000000000000000, 4.00000000000000000000, 4.00000000000000000000, 4.00000000000000000000, 4.00000000000000000000, 4.00000000000000000000, 4.00000000000000000000
92.00000000000000000000, 0.00000000000000000000, 4336.41015037120540000000, 4891.28193167461630000000, 3937.94862165332140000000, 4768.71783210759710000000, 4015.38451719566460000000, 4646.66655304085820000000, 4322.05117636335400000000, 4430.76912242280200000000, 4405.12809740878130000000, 4203.58964079857740000000, 4446.15373743121470000000, 3783.07683056863560000000, 3935.38451915191940000000, 4386.66655939868630000000, 427.00000000000000000000, 1753.00000000000000000000, 1732.00000000000000000000, 0.00000000000000000000, 0.00000000000000000000, 234.00000000000000000000, 744.00000000000000000000, 4.00000000000000000000, 4.00000000000000000000, 3.00000000000000000000, 2.00000000000000000000, 4.00000000000000000000, 2.00000000000000000000, 4.00000000000000000000, 3.00000000000000000000, 4.00000000000000000000, 4.00000000000000000000, 4.00000000000000000000, 4.00000000000000000000, 4.00000000000000000000, 4.00000000000000000000, 4.00000000000000000000, 4.00000000000000000000
93.00000000000000000000, 0.00000000000000000000, 4332.30758636896190000000, 4890.76911117433610000000, 3931.79477564995660000000, 4763.07680660451210000000, 4004.61528668977550000000, 4647.69219404141860000000, 4316.41015086026890000000, 4422.05117391803470000000, 4391.79476440149030000000, 4191.79476929212800000000, 4446.15373743121470000000, 3775.38452306442920000000, 3927.17939114743290000000, 4364.61527788662810000000, 444.00000000000000000000, 1752.00000000000000000000, 1734.00000000000000000000, 0.00000000000000000000, 0.00000000000000000000, 234.00000000000000000000, 752.00000000000000000000, 4.00000000000000000000, 4.00000000000000000000, 3.00000000000000000000, 2.00000000000000000000, 4.00000000000000000000, 2.00000000000000000000, 4.00000000000000000000, 3.00000000000000000000, 4.00000000000000000000, 4.00000000000000000000, 4.00000000000000000000, 4.00000000000000000000, 4.00000000000000000000, 4.00000000000000000000, 4.00000000000000000000, 4.00000000000000000000
94.00000000000000000000, 0.00000000000000000000, 4322.56399686363420000000, 4883.07680367013020000000, 3925.64092964659180000000, 4752.30757609862390000000, 3998.46144068641070000000, 4644.61527103973640000000, 4309.74348435662340000000, 4412.30758441270700000000, 4388.20502089952790000000, 4182.05117978680030000000, 4439.48707092756920000000, 3776.41016406499010000000, 3928.20503214799370000000, 4364.61527788662810000000, 358.00000000000000000000, 1753.00000000000000000000, 1735.00000000000000000000, 0.00000000000000000000, 0.00000000000000000000, 234.00000000000000000000, 759.00000000000000000000, 4.00000000000000000000, 4.00000000000000000000, 3.00000000000000000000, 2.00000000000000000000, 4.00000000000000000000, 2.00000000000000000000, 4.00000000000000000000, 3.00000000000000000000, 4.00000000000000000000, 4.00000000000000000000, 4.00000000000000000000, 4.00000000000000000000, 4.00000000000000000000, 4.00000000000000000000, 4.00000000000000000000, 4.00000000000000000000
95.00000000000000000000, 0.00000000000000000000, 4318.97425336167090000000, 4876.41013716648470000000, 3925.64092964659180000000, 4759.99988360282990000000, 3999.48708168697160000000, 4647.17937354113840000000, 4317.94861236111050000000, 4423.07681491859600000000, 4400.51271290625750000000, 4186.66656428932400000000, 4430.76912242280200000000, 3775.89734356470990000000, 3926.66657064715220000000, 4371.28194439027360000000, 445.00000000000000000000, 1751.00000000000000000000, 1735.00000000000000000000, 0.00000000000000000000, 0.00000000000000000000, 234.00000000000000000000, 767.00000000000000000000, 4.00000000000000000000, 4.00000000000000000000, 3.00000000000000000000, 2.00000000000000000000, 4.00000000000000000000, 2.00000000000000000000, 4.00000000000000000000, 3.00000000000000000000, 4.00000000000000000000, 4.00000000000000000000, 4.00000000000000000000, 4.00000000000000000000, 4.00000000000000000000, 4.00000000000000000000, 4.00000000000000000000, 4.00000000000000000000
96.00000000000000000000, 0.00000000000000000000, 4330.76912486812130000000, 4884.61526517097080000000, 3932.82041665051750000000, 4773.84603711040110000000, 4006.66656869089730000000, 4654.35886054506410000000, 4329.74348386755990000000, 4429.23066092196130000000, 4404.61527690850110000000, 4198.97425629605370000000, 4438.97425042728900000000, 3778.46144606611190000000, 3930.76913464939570000000, 4379.48707239476060000000, 427.00000000000000000000, 1753.00000000000000000000, 1735.00000000000000000000, 0.00000000000000000000, 0.00000000000000000000, 234.00000000000000000000, 775.00000000000000000000, 4.00000000000000000000, 4.00000000000000000000, 3.00000000000000000000, 2.00000000000000000000, 4.00000000000000000000, 2.00000000000000000000, 4.00000000000000000000, 3.00000000000000000000, 4.00000000000000000000, 4.00000000000000000000, 4.00000000000000000000, 4.00000000000000000000, 4.00000000000000000000, 4.00000000000000000000, 4.00000000000000000000, 4.00000000000000000000
97.00000000000000000000, 0.00000000000000000000, 4339.48707337288760000000, 4894.35885467629940000000, 3937.43580115304120000000, 4768.71783210759710000000, 4007.17938919117800000000, 4648.20501454169880000000, 4327.17938136615790000000, 4430.76912242280200000000, 4407.69219991018330000000, 4206.15374329997940000000, 4448.71783993261670000000, 3786.15375357031830000000, 3942.05118565556500000000, 4388.20502089952790000000, 444.00000000000000000000, 1752.00000000000000000000, 1735.00000000000000000000, 0.00000000000000000000, 0.00000000000000000000, 234.00000000000000000000, 783.00000000000000000000, 4.00000000000000000000, 4.00000000000000000000, 3.00000000000000000000, 2.00000000000000000000, 4.00000000000000000000, 2.00000000000000000000, 4.00000000000000000000, 3.00000000000000000000, 4.00000000000000000000, 4.00000000000000000000, 4.00000000000000000000, 4.00000000000000000000, 4.00000000000000000000, 4.00000000000000000000, 4.00000000000000000000, 4.00000000000000000000
98.00000000000000000000, 0.00000000000000000000, 4330.25630436784010000000, 4892.30757267517770000000, 3932.82041665051750000000, 4762.56398610423180000000, 3999.48708168697160000000, 4641.02552753777310000000, 4316.92297136055000000000, 4432.30758392364350000000, 4409.23066141102480000000, 4199.48707679633390000000, 4443.07681442953250000000, 3785.12811256975740000000, 3939.99990365444320000000, 4383.07681589672300000000, 358.00000000000000000000, 1752.00000000000000000000, 1736.00000000000000000000, 0.00000000000000000000, 0.00000000000000000000, 234.00000000000000000000, 791.00000000000000000000, 4.00000000000000000000, 4.00000000000000000000, 3.00000000000000000000, 2.00000000000000000000, 4.00000000000000000000, 2.00000000000000000000, 4.00000000000000000000, 3.00000000000000000000, 4.00000000000000000000, 4.00000000000000000000, 4.00000000000000000000, 4.00000000000000000000, 4.00000000000000000000, 4.00000000000000000000, 4.00000000000000000000, 4.00000000000000000000
99.00000000000000000000, 0.00000000000000000000, 4324.10245836447580000000, 4889.74347017377570000000, 3933.84605765107840000000, 4770.25629360843780000000, 3999.48708168697160000000, 4651.28193754338190000000, 4314.87168935942830000000, 4419.99989191691380000000, 4402.05117440709910000000, 4196.41015379465170000000, 4444.10245543009300000000, 3779.99990756695300000000, 3931.79477564995660000000, 4373.84604689167550000000, 445.00000000000000000000, 1752.00000000000000000000, 1735.00000000000000000000, 0.00000000000000000000, 0.00000000000000000000, 234.00000000000000000000, 799.00000000000000000000, 4.00000000000000000000, 4.00000000000000000000, 3.00000000000000000000, 2.00000000000000000000, 4.00000000000000000000, 2.00000000000000000000, 4.00000000000000000000, 3.00000000000000000000, 4.00000000000000000000, 4.00000000000000000000, 4.00000000000000000000, 4.00000000000000000000, 4.00000000000000000000, 4.00000000000000000000, 4.00000000000000000000, 4.00000000000000000000
100.00000000000000000000, 0.00000000000000000000, 4325.64091986531640000000, 4884.61526517097080000000, 3934.35887815135860000000, 4763.58962710479320000000, 4003.58964568921510000000, 4656.41014254618590000000, 4321.53835586307380000000, 4409.23066141102480000000, 4393.33322590233180000000, 4198.46143579577350000000, 4449.74348093317800000000, 3777.94862556583170000000, 3930.25631414911550000000, 4376.41014939307840000000, 427.00000000000000000000, 1751.00000000000000000000, 1736.00000000000000000000, 0.00000000000000000000, 0.00000000000000000000, 234.00000000000000000000, 806.00000000000000000000, 4.00000000000000000000, 4.00000000000000000000, 3.00000000000000000000, 2.00000000000000000000, 4.00000000000000000000, 2.00000000000000000000, 4.00000000000000000000, 3.00000000000000000000, 4.00000000000000000000, 4.00000000000000000000, 4.00000000000000000000, 4.00000000000000000000, 4.00000000000000000000, 4.00000000000000000000, 4.00000000000000000000, 4.00000000000000000000
101.00000000000000000000, 0.00000000000000000000, 4318.97425336167090000000, 4877.94859866732530000000, 3926.66657064715220000000, 4751.79475559834280000000, 4002.56400468865420000000, 4644.10245053945530000000, 4323.07681736391440000000, 4411.79476391242680000000, 4388.71784139980810000000, 4190.25630779128640000000, 4439.99989142784940000000, 3773.84606156358810000000, 3927.69221164771310000000, 4374.87168789223690000000, 444.00000000000000000000, 1752.00000000000000000000, 1735.00000000000000000000, 0.00000000000000000000, 0.00000000000000000000, 234.00000000000000000000, 814.00000000000000000000, 4.00000000000000000000, 4.00000000000000000000, 3.00000000000000000000, 2.00000000000000000000, 4.00000000000000000000, 2.00000000000000000000, 4.00000000000000000000, 3.00000000000000000000, 4.00000000000000000000, 4.00000000000000000000, 4.00000000000000000000, 4.00000000000000000000, 4.00000000000000000000, 4.00000000000000000000, 4.00000000000000000000, 4.00000000000000000000
102.00000000000000000000, 0.00000000000000000000, 4318.46143286139070000000, 4885.12808567125190000000, 3926.66657064715220000000, 4762.56398610423180000000, 4007.69220969145820000000, 4641.02552753777310000000, 4317.94861236111050000000, 4419.99989191691380000000, 4392.30758490177050000000, 4188.20502579016470000000, 4439.99989142784940000000, 3777.43580506555100000000, 3932.82041665051750000000, 4374.35886739195670000000, 358.00000000000000000000, 1751.00000000000000000000, 1735.00000000000000000000, 0.00000000000000000000, 0.00000000000000000000, 234.00000000000000000000, 822.00000000000000000000, 4.00000000000000000000, 4.00000000000000000000, 3.00000000000000000000, 2.00000000000000000000, 4.00000000000000000000, 2.00000000000000000000, 4.00000000000000000000, 3.00000000000000000000, 4.00000000000000000000, 4.00000000000000000000, 4.00000000000000000000, 4.00000000000000000000, 4.00000000000000000000, 4.00000000000000000000, 4.00000000000000000000, 4.00000000000000000000
103.00000000000000000000, 0.00000000000000000000, 4330.76912486812130000000, 4894.87167517657960000000, 3935.89733965219970000000, 4775.89731911152280000000, 4012.30759419398190000000, 4651.28193754338190000000, 4323.58963786419460000000, 4432.82040442392370000000, 4402.56399490737930000000, 4200.51271779689520000000, 4458.97424993822550000000, 3789.23067657200040000000, 3945.64092915752780000000, 4388.71784139980810000000, 445.00000000000000000000, 1751.00000000000000000000, 1734.00000000000000000000, 0.00000000000000000000, 0.00000000000000000000, 234.00000000000000000000, 830.00000000000000000000, 4.00000000000000000000, 4.00000000000000000000, 3.00000000000000000000, 2.00000000000000000000, 4.00000000000000000000, 2.00000000000000000000, 4.00000000000000000000, 3.00000000000000000000, 4.00000000000000000000, 4.00000000000000000000, 4.00000000000000000000, 4.00000000000000000000, 4.00000000000000000000, 4.00000000000000000000, 4.00000000000000000000, 4.00000000000000000000
104.00000000000000000000, 0.00000000000000000000, 4327.17938136615790000000, 4889.23064967349460000000, 3935.38451915191940000000, 4769.23065260787730000000, 4001.53836368809330000000, 4653.84604004478390000000, 4332.82040686924300000000, 4441.53835292869100000000, 4407.69219991018330000000, 4203.58964079857740000000, 4464.10245494102950000000, 3786.66657407059850000000, 3942.56400615584520000000, 4390.76912340092990000000, 427.00000000000000000000, 1751.00000000000000000000, 1733.00000000000000000000, 0.00000000000000000000, 0.00000000000000000000, 234.00000000000000000000, 838.00000000000000000000, 4.00000000000000000000, 4.00000000000000000000, 3.00000000000000000000, 2.00000000000000000000, 4.00000000000000000000, 2.00000000000000000000, 4.00000000000000000000, 3.00000000000000000000, 4.00000000000000000000, 4.00000000000000000000, 4.00000000000000000000, 4.00000000000000000000, 4.00000000000000000000, 4.00000000000000000000, 4.00000000000000000000, 4.00000000000000000000
105.00000000000000000000, 0.00000000000000000000, 4312.30758685802630000000, 4880.51270116872820000000, 3927.17939114743290000000, 4763.58962710479320000000, 3999.48708168697160000000, 4648.20501454169880000000, 4325.12809936503620000000, 4444.61527593037320000000, 4418.46143041607230000000, 4204.10246129885760000000, 4447.69219893205630000000, 3775.38452306442920000000, 3928.71785264827390000000, 4375.38450839251710000000, 444.00000000000000000000, 1752.00000000000000000000, 1733.00000000000000000000, 0.00000000000000000000, 0.00000000000000000000, 234.00000000000000000000, 845.00000000000000000000, 4.00000000000000000000, 4.00000000000000000000, 3.00000000000000000000, 2.00000000000000000000, 4.00000000000000000000, 2.00000000000000000000, 4.00000000000000000000, 3.00000000000000000000, 4.00000000000000000000, 4.00000000000000000000, 4.00000000000000000000, 4.00000000000000000000, 4.00000000000000000000, 4.00000000000000000000, 4.00000000000000000000, 4.00000000000000000000
106.00000000000000000000, 0.00000000000000000000, 4310.25630485690450000000, 4877.94859866732530000000, 3922.56400664490910000000, 4767.69219110703580000000, 4005.12810719005620000000, 4647.69219404141860000000, 4313.84604835886690000000, 4447.69219893205630000000, 4430.25630192252170000000, 4205.64092279969920000000, 4436.92296842616720000000, 3765.12811305882090000000, 3925.12810914631110000000, 4364.61527788662810000000, 358.00000000000000000000, 1751.00000000000000000000, 1732.00000000000000000000, 0.00000000000000000000, 0.00000000000000000000, 234.00000000000000000000, 853.00000000000000000000, 4.00000000000000000000, 4.00000000000000000000, 3.00000000000000000000, 2.00000000000000000000, 4.00000000000000000000, 2.00000000000000000000, 4.00000000000000000000, 3.00000000000000000000, 4.00000000000000000000, 4.00000000000000000000, 4.00000000000000000000, 4.00000000000000000000, 4.00000000000000000000, 4.00000000000000000000, 4.00000000000000000000, 4.00000000000000000000
107.00000000000000000000, 0.00000000000000000000, 4313.84604835886690000000, 4877.94859866732530000000, 3922.05118614462840000000, 4768.20501160731690000000, 3998.97426118669140000000, 4647.17937354113840000000, 4310.25630485690450000000, 4433.33322492420390000000, 4412.82040491298720000000, 4196.92297429493190000000, 4438.46142992700880000000, 3761.53836955685800000000, 3925.64092964659180000000, 4365.64091888718940000000, 445.00000000000000000000, 1753.00000000000000000000, 1732.00000000000000000000, 0.00000000000000000000, 0.00000000000000000000, 234.00000000000000000000, 861.00000000000000000000, 4.00000000000000000000, 4.00000000000000000000, 3.00000000000000000000, 2.00000000000000000000, 4.00000000000000000000, 2.00000000000000000000, 4.00000000000000000000, 3.00000000000000000000, 4.00000000000000000000, 4.00000000000000000000, 4.00000000000000000000, 4.00000000000000000000, 4.00000000000000000000, 4.00000000000000000000, 4.00000000000000000000, 4.00000000000000000000
108.00000000000000000000, 0.00000000000000000000, 4309.23066385634320000000, 4876.41013716648470000000, 3923.58964764547000000000, 4770.25629360843780000000, 3993.33323568360670000000, 4647.69219404141860000000, 4314.87168935942830000000, 4407.17937940990300000000, 4383.07681589672300000000, 4188.20502579016470000000, 4441.53835292869100000000, 3769.23067706106440000000, 3925.12810914631110000000, 4364.10245738634790000000, 427.00000000000000000000, 1751.00000000000000000000, 1731.00000000000000000000, 0.00000000000000000000, 0.00000000000000000000, 234.00000000000000000000, 869.00000000000000000000, 4.00000000000000000000, 4.00000000000000000000, 3.00000000000000000000, 2.00000000000000000000, 4.00000000000000000000, 2.00000000000000000000, 4.00000000000000000000, 3.00000000000000000000, 4.00000000000000000000, 4.00000000000000000000, 4.00000000000000000000, 4.00000000000000000000, 4.00000000000000000000, 4.00000000000000000000, 4.00000000000000000000, 4.00000000000000000000
109.00000000000000000000, 0.00000000000000000000, 4301.02553585185710000000, 4872.30757316424110000000, 3922.56400664490910000000, 4773.84603711040110000000, 3995.89733818500870000000, 4651.28193754338190000000, 4321.02553536279270000000, 4399.99989240597730000000, 4375.38450839251710000000, 4186.66656428932400000000, 4442.56399392925140000000, 3771.79477956246640000000, 3928.71785264827390000000, 4359.99989338410430000000, 444.00000000000000000000, 1752.00000000000000000000, 1732.00000000000000000000, 0.00000000000000000000, 0.00000000000000000000, 234.00000000000000000000, 877.00000000000000000000, 4.00000000000000000000, 4.00000000000000000000, 3.00000000000000000000, 2.00000000000000000000, 4.00000000000000000000, 2.00000000000000000000, 4.00000000000000000000, 3.00000000000000000000, 4.00000000000000000000, 4.00000000000000000000, 4.00000000000000000000, 4.00000000000000000000, 4.00000000000000000000, 4.00000000000000000000, 4.00000000000000000000, 4.00000000000000000000
110.00000000000000000000, 0.00000000000000000000, 4297.94861285017400000000, 4869.23065016255900000000, 3918.46144264266560000000, 4772.30757560955950000000, 3992.30759468304590000000, 4650.25629654282060000000, 4316.92297136055000000000, 4406.15373840934260000000, 4381.53835439588240000000, 4187.17938478960420000000, 4438.46142992700880000000, 3762.56401055741890000000, 3924.61528864603090000000, 4361.02553438466570000000, 358.00000000000000000000, 1752.00000000000000000000, 1730.00000000000000000000, 0.00000000000000000000, 0.00000000000000000000, 234.00000000000000000000, 885.00000000000000000000, 4.00000000000000000000, 4.00000000000000000000, 3.00000000000000000000, 2.00000000000000000000, 4.00000000000000000000, 2.00000000000000000000, 4.00000000000000000000, 3.00000000000000000000, 4.00000000000000000000, 4.00000000000000000000, 4.00000000000000000000, 4.00000000000000000000, 4.00000000000000000000, 4.00000000000000000000, 4.00000000000000000000, 4.00000000000000000000
111.00000000000000000000, 0.00000000000000000000, 4307.17938185522140000000, 4873.33321416480160000000, 3924.61528864603090000000, 4773.84603711040110000000, 3990.25631268192410000000, 4649.74347604254040000000, 4305.64092035438080000000, 4413.33322541326830000000, 4389.23066190008830000000, 4191.28194879184780000000, 4436.41014792588700000000, 3761.53836955685800000000, 3919.99990414350710000000, 4368.71784188887160000000, 445.00000000000000000000, 1751.00000000000000000000, 1730.00000000000000000000, 0.00000000000000000000, 0.00000000000000000000, 234.00000000000000000000, 892.00000000000000000000, 4.00000000000000000000, 4.00000000000000000000, 3.00000000000000000000, 2.00000000000000000000, 4.00000000000000000000, 2.00000000000000000000, 4.00000000000000000000, 3.00000000000000000000, 4.00000000000000000000, 4.00000000000000000000, 4.00000000000000000000, 4.00000000000000000000, 4.00000000000000000000, 4.00000000000000000000, 4.00000000000000000000, 4.00000000000000000000
112.00000000000000000000, 0.00000000000000000000, 4326.66656086587770000000, 4885.64090617153220000000, 3939.99990365444320000000, 4780.51270361404660000000, 4003.07682518893440000000, 4651.28193754338190000000, 4304.61527935381950000000, 4425.64091741999800000000, 4400.51271290625750000000, 4198.46143579577350000000, 4448.71783993261670000000, 3777.43580506555100000000, 3932.82041665051750000000, 4383.07681589672300000000, 427.00000000000000000000, 1752.00000000000000000000, 1728.00000000000000000000, 0.00000000000000000000, 0.00000000000000000000, 234.00000000000000000000, 900.00000000000000000000, 4.00000000000000000000, 4.00000000000000000000, 3.00000000000000000000, 2.00000000000000000000, 4.00000000000000000000, 2.00000000000000000000, 4.00000000000000000000, 3.00000000000000000000, 4.00000000000000000000, 4.00000000000000000000, 4.00000000000000000000, 4.00000000000000000000, 4.00000000000000000000, 4.00000000000000000000, 4.00000000000000000000, 4.00000000000000000000
113.00000000000000000000, 0.00000000000000000000, 4336.92297087148560000000, 4894.87167517657960000000, 3947.17939065836890000000, 4785.12808811657030000000, 4010.25631219286020000000, 4651.28193754338190000000, 4316.41015086026890000000, 4434.87168642504550000000, 4407.69219991018330000000, 4203.58964079857740000000, 4460.51271143906620000000, 3790.25631757256130000000, 3945.12810865724760000000, 4395.38450790345360000000, 444.00000000000000000000, 1752.00000000000000000000, 1729.00000000000000000000, 0.00000000000000000000, 0.00000000000000000000, 234.00000000000000000000, 908.00000000000000000000, 4.00000000000000000000, 4.00000000000000000000, 3.00000000000000000000, 2.00000000000000000000, 4.00000000000000000000, 2.00000000000000000000, 4.00000000000000000000, 3.00000000000000000000, 4.00000000000000000000, 4.00000000000000000000, 4.00000000000000000000, 4.00000000000000000000, 4.00000000000000000000, 4.00000000000000000000, 4.00000000000000000000, 4.00000000000000000000
114.00000000000000000000, 0.00000000000000000000, 4333.84604786980340000000, 4891.79475217489740000000, 3941.02554465500410000000, 4783.58962661572880000000, 4008.71785069201910000000, 4650.76911704310080000000, 4323.07681736391440000000, 4425.12809691971780000000, 4408.20502041046350000000, 4209.23066630166250000000, 4462.56399344018790000000, 3790.25631757256130000000, 3943.07682665612580000000, 4397.43578990457540000000, 358.00000000000000000000, 1753.00000000000000000000, 1730.00000000000000000000, 0.00000000000000000000, 0.00000000000000000000, 234.00000000000000000000, 916.00000000000000000000, 4.00000000000000000000, 4.00000000000000000000, 3.00000000000000000000, 2.00000000000000000000, 4.00000000000000000000, 2.00000000000000000000, 4.00000000000000000000, 3.00000000000000000000, 4.00000000000000000000, 4.00000000000000000000, 4.00000000000000000000, 4.00000000000000000000, 4.00000000000000000000, 4.00000000000000000000, 4.00000000000000000000, 4.00000000000000000000
115.00000000000000000000, 0.00000000000000000000, 4329.23066336727970000000, 4887.69218817265390000000, 3931.79477564995660000000, 4781.02552411432680000000, 4010.25631219286020000000, 4650.76911704310080000000, 4316.41015086026890000000, 4411.28194341214660000000, 4398.46143090513580000000, 4211.28194830278330000000, 4461.53835243962750000000, 3785.12811256975740000000, 3942.05118565556500000000, 4396.41014890401400000000, 445.00000000000000000000, 1752.00000000000000000000, 1731.00000000000000000000, 0.00000000000000000000, 0.00000000000000000000, 234.00000000000000000000, 924.00000000000000000000, 4.00000000000000000000, 4.00000000000000000000, 3.00000000000000000000, 2.00000000000000000000, 4.00000000000000000000, 2.00000000000000000000, 4.00000000000000000000, 3.00000000000000000000, 4.00000000000000000000, 4.00000000000000000000, 4.00000000000000000000, 4.00000000000000000000, 4.00000000000000000000, 4.00000000000000000000, 4.00000000000000000000, 4.00000000000000000000
116.00000000000000000000, 0.00000000000000000000, 4331.79476586868170000000, 4889.23064967349460000000, 3932.30759615023680000000, 4786.15372911713080000000, 4010.25631219286020000000, 4650.25629654282060000000, 4318.46143286139070000000, 4421.02553291747430000000, 4393.84604640261200000000, 4203.58964079857740000000, 4457.94860893766420000000, 3781.53836906779450000000, 3941.02554465500410000000, 4392.30758490177050000000, 427.00000000000000000000, 1753.00000000000000000000, 1731.00000000000000000000, 0.00000000000000000000, 0.00000000000000000000, 234.00000000000000000000, 932.00000000000000000000, 4.00000000000000000000, 4.00000000000000000000, 3.00000000000000000000, 2.00000000000000000000, 4.00000000000000000000, 2.00000000000000000000, 4.00000000000000000000, 3.00000000000000000000, 4.00000000000000000000, 4.00000000000000000000, 4.00000000000000000000, 4.00000000000000000000, 4.00000000000000000000, 4.00000000000000000000, 4.00000000000000000000, 4.00000000000000000000
117.00000000000000000000, 0.00000000000000000000, 4329.23066336727970000000, 4886.66654717209260000000, 3936.92298065276050000000, 4785.64090861685050000000, 4006.66656869089730000000, 4646.66655304085820000000, 4332.30758636896190000000, 4441.53835292869100000000, 4404.61527690850110000000, 4197.43579479521210000000, 4448.20501943233650000000, 3779.48708706667280000000, 3930.76913464939570000000, 4382.05117489616260000000, 444.00000000000000000000, 1752.00000000000000000000, 1731.00000000000000000000, 0.00000000000000000000, 0.00000000000000000000, 234.00000000000000000000, 939.00000000000000000000, 4.00000000000000000000, 4.00000000000000000000, 3.00000000000000000000, 2.00000000000000000000, 4.00000000000000000000, 2.00000000000000000000, 4.00000000000000000000, 3.00000000000000000000, 4.00000000000000000000, 4.00000000000000000000, 4.00000000000000000000, 4.00000000000000000000, 4.00000000000000000000, 4.00000000000000000000, 4.00000000000000000000, 4.00000000000000000000
118.00000000000000000000, 0.00000000000000000000, 4313.33322785858670000000, 4876.41013716648470000000, 3929.23067314855460000000, 4774.35885761068130000000, 3997.43579968584980000000, 4643.58963003917510000000, 4323.07681736391440000000, 4439.99989142784940000000, 4404.61527690850110000000, 4195.38451279409130000000, 4441.02553242841080000000, 3771.28195906218620000000, 3922.56400664490910000000, 4372.30758539083490000000, 358.00000000000000000000, 1753.00000000000000000000, 1731.00000000000000000000, 0.00000000000000000000, 0.00000000000000000000, 234.00000000000000000000, 947.00000000000000000000, 4.00000000000000000000, 4.00000000000000000000, 3.00000000000000000000, 2.00000000000000000000, 4.00000000000000000000, 2.00000000000000000000, 4.00000000000000000000, 3.00000000000000000000, 4.00000000000000000000, 4.00000000000000000000, 4.00000000000000000000, 4.00000000000000000000, 4.00000000000000000000, 4.00000000000000000000, 4.00000000000000000000, 4.00000000000000000000
119.00000000000000000000, 0.00000000000000000000, 4303.07681785297880000000, 4872.30757316424110000000, 3921.53836564434820000000, 4772.82039610984070000000, 3989.23067168136320000000, 4649.74347604254040000000, 4308.20502285578280000000, 4426.66655842055840000000, 4390.25630290064960000000, 4195.38451279409130000000, 4440.51271192813060000000, 3769.74349756134460000000, 3927.17939114743290000000, 4373.33322639139530000000, 445.00000000000000000000, 1752.00000000000000000000, 1731.00000000000000000000, 0.00000000000000000000, 0.00000000000000000000, 234.00000000000000000000, 955.00000000000000000000, 4.00000000000000000000, 4.00000000000000000000, 3.00000000000000000000, 2.00000000000000000000, 4.00000000000000000000, 2.00000000000000000000, 4.00000000000000000000, 3.00000000000000000000, 4.00000000000000000000, 4.00000000000000000000, 4.00000000000000000000, 4.00000000000000000000, 4.00000000000000000000, 4.00000000000000000000, 4.00000000000000000000, 4.00000000000000000000
120.00000000000000000000, 0.00000000000000000000, 4314.35886885914720000000, 4877.43577816704510000000, 3928.71785264827390000000, 4784.10244711600990000000, 3993.84605618388700000000, 4655.89732204590560000000, 4322.56399686363420000000, 4425.12809691971780000000, 4388.71784139980810000000, 4193.84605129324970000000, 4445.12809643065430000000, 3780.51272806723360000000, 3936.41016015248030000000, 4378.46143139419930000000, 427.00000000000000000000, 1753.00000000000000000000, 1734.00000000000000000000, 0.00000000000000000000, 0.00000000000000000000, 234.00000000000000000000, 963.00000000000000000000, 4.00000000000000000000, 4.00000000000000000000, 3.00000000000000000000, 2.00000000000000000000, 4.00000000000000000000, 2.00000000000000000000, 4.00000000000000000000, 3.00000000000000000000, 4.00000000000000000000, 4.00000000000000000000, 4.00000000000000000000, 4.00000000000000000000, 4.00000000000000000000, 4.00000000000000000000, 4.00000000000000000000, 4.00000000000000000000
121.00000000000000000000, 0.00000000000000000000, 4330.76912486812130000000, 4879.48706016816690000000, 3935.38451915191940000000, 4783.07680611544860000000, 4001.53836368809330000000, 4647.17937354113840000000, 4328.20502236671840000000, 4436.92296842616720000000, 4408.71784091074460000000, 4196.41015379465170000000, 4453.33322443514040000000, 3791.28195857312220000000, 3938.97426265388230000000, 4380.51271339532100000000, 444.00000000000000000000, 1753.00000000000000000000, 1732.00000000000000000000, 0.00000000000000000000, 0.00000000000000000000, 234.00000000000000000000, 971.00000000000000000000, 4.00000000000000000000, 4.00000000000000000000, 3.00000000000000000000, 2.00000000000000000000, 4.00000000000000000000, 2.00000000000000000000, 4.00000000000000000000, 3.00000000000000000000, 4.00000000000000000000, 4.00000000000000000000, 4.00000000000000000000, 4.00000000000000000000, 4.00000000000000000000, 4.00000000000000000000, 4.00000000000000000000, 4.00000000000000000000
122.00000000000000000000, 0.00000000000000000000, 4326.66656086587770000000, 4874.87167566564310000000, 3928.20503214799370000000, 4770.25629360843780000000, 3997.43579968584980000000, 4640.51270703749290000000, 4310.25630485690450000000, 4439.48707092756920000000, 4422.05117391803470000000, 4203.07682029829720000000, 4453.33322443514040000000, 3785.12811256975740000000, 3931.79477564995660000000, 4382.05117489616260000000, 358.00000000000000000000, 1752.00000000000000000000, 1733.00000000000000000000, 0.00000000000000000000, 0.00000000000000000000, 234.00000000000000000000, 978.00000000000000000000, 4.00000000000000000000, 4.00000000000000000000, 3.00000000000000000000, 2.00000000000000000000, 4.00000000000000000000, 2.00000000000000000000, 4.00000000000000000000, 3.00000000000000000000, 4.00000000000000000000, 4.00000000000000000000, 4.00000000000000000000, 4.00000000000000000000, 4.00000000000000000000, 4.00000000000000000000, 4.00000000000000000000, 4.00000000000000000000
123.00000000000000000000, 0.00000000000000000000, 4310.25630485690450000000, 4873.84603466508270000000, 3918.46144264266560000000, 4770.25629360843780000000, 3996.41015868528890000000, 4649.23065554226010000000, 4310.25630485690450000000, 4429.74348142224150000000, 4410.76912291186640000000, 4201.02553829717540000000, 4443.07681442953250000000, 3770.76913856190550000000, 3924.61528864603090000000, 4381.02553389560220000000, 445.00000000000000000000, 1752.00000000000000000000, 1731.00000000000000000000, 0.00000000000000000000, 0.00000000000000000000, 234.00000000000000000000, 986.00000000000000000000, 4.00000000000000000000, 4.00000000000000000000, 3.00000000000000000000, 2.00000000000000000000, 4.00000000000000000000, 2.00000000000000000000, 4.00000000000000000000, 3.00000000000000000000, 4.00000000000000000000, 4.00000000000000000000, 4.00000000000000000000, 4.00000000000000000000, 4.00000000000000000000, 4.00000000000000000000, 4.00000000000000000000, 4.00000000000000000000
124.00000000000000000000, 0.00000000000000000000, 4306.66656135494120000000, 4876.41013716648470000000, 3918.46144264266560000000, 4776.41013961180310000000, 3999.48708168697160000000, 4651.79475804366210000000, 4323.58963786419460000000, 4428.71784042168020000000, 4400.51271290625750000000, 4196.41015379465170000000, 4436.41014792588700000000, 3768.20503606050350000000, 3925.12810914631110000000, 4379.99989289504080000000, 427.00000000000000000000, 1752.00000000000000000000, 1731.00000000000000000000, 0.00000000000000000000, 0.00000000000000000000, 234.00000000000000000000, 994.00000000000000000000, 4.00000000000000000000, 4.00000000000000000000, 3.00000000000000000000, 2.00000000000000000000, 4.00000000000000000000, 2.00000000000000000000, 4.00000000000000000000, 3.00000000000000000000, 4.00000000000000000000, 4.00000000000000000000, 4.00000000000000000000, 4.00000000000000000000, 4.00000000000000000000, 4.00000000000000000000, 4.00000000000000000000, 4.00000000000000000000
125.00000000000000000000, 0.00000000000000000000, 4311.28194585746500000000, 4876.41013716648470000000, 3921.53836564434820000000, 4773.33321661012090000000, 3997.94862018613050000000, 4647.69219404141860000000, 4321.53835586307380000000, 4424.61527641943760000000, 4395.38450790345360000000, 4192.82041029268840000000, 4436.41014792588700000000, 3769.23067706106440000000, 3926.15375014687200000000, 4376.41014939307840000000, 444.00000000000000000000, 1752.00000000000000000000, 1731.00000000000000000000, 0.00000000000000000000, 0.00000000000000000000, 235.00000000000000000000, 3.00000000000000000000, 4.00000000000000000000, 4.00000000000000000000, 3.00000000000000000000, 2.00000000000000000000, 4.00000000000000000000, 2.00000000000000000000, 4.00000000000000000000, 3.00000000000000000000, 4.00000000000000000000, 4.00000000000000000000, 4.00000000000000000000, 4.00000000000000000000, 4.00000000000000000000, 4.00000000000000000000, 4.00000000000000000000, 4.00000000000000000000
126.00000000000000000000, 0.00000000000000000000, 4313.33322785858670000000, 4877.43577816704510000000, 3925.12810914631110000000, 4770.76911410871890000000, 3996.92297918556960000000, 4650.25629654282060000000, 4312.82040735830650000000, 4403.58963590793970000000, 4377.94861089391910000000, 4187.17938478960420000000, 4431.28194292308220000000, 3765.64093355910150000000, 3922.56400664490910000000, 4370.25630338971310000000, 358.00000000000000000000, 1751.00000000000000000000, 1732.00000000000000000000, 0.00000000000000000000, 0.00000000000000000000, 235.00000000000000000000, 11.00000000000000000000, 4.00000000000000000000, 4.00000000000000000000, 3.00000000000000000000, 2.00000000000000000000, 4.00000000000000000000, 2.00000000000000000000, 4.00000000000000000000, 3.00000000000000000000, 4.00000000000000000000, 4.00000000000000000000, 4.00000000000000000000, 4.00000000000000000000, 4.00000000000000000000, 4.00000000000000000000, 4.00000000000000000000, 4.00000000000000000000
127.00000000000000000000, 0.00000000000000000000, 4318.46143286139070000000, 4881.53834216928860000000, 3928.20503214799370000000, 4782.05116511488810000000, 3997.43579968584980000000, 4650.25629654282060000000, 4308.71784335606300000000, 4396.41014890401400000000, 4375.89732889279730000000, 4189.74348729100620000000, 4431.28194292308220000000, 3768.71785656078420000000, 3925.12810914631110000000, 4369.23066238915180000000, 445.00000000000000000000, 1752.00000000000000000000, 1733.00000000000000000000, 0.00000000000000000000, 0.00000000000000000000, 235.00000000000000000000, 19.00000000000000000000, 4.00000000000000000000, 4.00000000000000000000, 3.00000000000000000000, 2.00000000000000000000, 4.00000000000000000000, 2.00000000000000000000, 4.00000000000000000000, 3.00000000000000000000, 4.00000000000000000000, 4.00000000000000000000, 4.00000000000000000000, 4.00000000000000000000, 4.00000000000000000000, 4.00000000000000000000, 4.00000000000000000000, 4.00000000000000000000
128.00000000000000000000, 0.00000000000000000000, 4325.64091986531640000000, 4881.02552166900840000000, 3932.82041665051750000000, 4791.28193411993560000000, 4001.02554318781270000000, 4650.76911704310080000000, 4315.38450985970850000000, 4424.10245591915650000000, 4408.71784091074460000000, 4204.61528179913880000000, 4446.15373743121470000000, 3779.99990756695300000000, 3931.79477564995660000000, 4377.94861089391910000000, 427.00000000000000000000, 1751.00000000000000000000, 1732.00000000000000000000, 0.00000000000000000000, 0.00000000000000000000, 235.00000000000000000000, 25.00000000000000000000, 4.00000000000000000000, 4.00000000000000000000, 4.00000000000000000000, 2.00000000000000000000, 4.00000000000000000000, 2.00000000000000000000, 4.00000000000000000000, 3.00000000000000000000, 4.00000000000000000000, 4.00000000000000000000, 4.00000000000000000000, 4.00000000000000000000, 4.00000000000000000000, 4.00000000000000000000, 4.00000000000000000000, 4.00000000000000000000
0.00000000000000000000, 0.00000000000000000000, 4322.05117636335400000000, 4877.43577816704510000000, 3933.33323715079770000000, 4778.97424211320500000000, 4005.64092769033640000000, 4652.30757854394230000000, 4326.66656086587770000000, 4441.02553242841080000000, 4421.02553291747430000000, 4208.20502530110120000000, 4452.30758343458000000000, 3786.15375357031830000000, 3932.82041665051750000000, 4382.56399539644280000000, 378.00000000000000000000, 1751.00000000000000000000, 1732.00000000000000000000, 0.00000000000000000000, 0.00000000000000000000, 235.00000000000000000000, 34.00000000000000000000, 4.00000000000000000000, 4.00000000000000000000, 3.00000000000000000000, 2.00000000000000000000, 4.00000000000000000000, 2.00000000000000000000, 4.00000000000000000000, 3.00000000000000000000, 4.00000000000000000000, 4.00000000000000000000, 4.00000000000000000000, 4.00000000000000000000, 4.00000000000000000000, 4.00000000000000000000, 4.00000000000000000000, 4.00000000000000000000
1.00000000000000000000, 0.00000000000000000000, 4311.28194585746500000000, 4876.92295766676490000000, 3925.64092964659180000000, 4765.64090910591400000000, 4002.56400468865420000000, 4648.20501454169880000000, 4328.20502236671840000000, 4438.46142992700880000000, 4405.64091790906150000000, 4195.38451279409130000000, 4441.53835292869100000000, 3779.48708706667280000000, 3927.17939114743290000000, 4372.82040589111510000000, 273.00000000000000000000, 1749.00000000000000000000, 1733.00000000000000000000, 0.00000000000000000000, 0.00000000000000000000, 235.00000000000000000000, 42.00000000000000000000, 4.00000000000000000000, 4.00000000000000000000, 3.00000000000000000000, 2.00000000000000000000, 4.00000000000000000000, 2.00000000000000000000, 4.00000000000000000000, 3.00000000000000000000, 4.00000000000000000000, 4.00000000000000000000, 4.00000000000000000000, 4.00000000000000000000, 4.00000000000000000000, 4.00000000000000000000, 4.00000000000000000000, 4.00000000000000000000
2.00000000000000000000, 0.00000000000000000000, 4304.10245885353920000000, 4874.87167566564310000000, 3919.99990414350710000000, 4769.23065260787730000000, 3995.38451768472810000000, 4650.25629654282060000000, 4326.15374036559750000000, 4433.84604542448510000000, 4397.94861040485560000000, 4188.20502579016470000000, 4434.35886592476530000000, 3766.15375405938180000000, 3920.51272464378740000000, 4364.10245738634790000000, 469.00000000000000000000, 1750.00000000000000000000, 1733.00000000000000000000, 0.00000000000000000000, 0.00000000000000000000, 235.00000000000000000000, 50.00000000000000000000, 4.00000000000000000000, 4.00000000000000000000, 3.00000000000000000000, 2.00000000000000000000, 4.00000000000000000000, 2.00000000000000000000, 4.00000000000000000000, 3.00000000000000000000, 4.00000000000000000000, 4.00000000000000000000, 4.00000000000000000000, 4.00000000000000000000, 4.00000000000000000000, 4.00000000000000000000, 4.00000000000000000000, 4.00000000000000000000
3.00000000000000000000, 0.00000000000000000000, 4309.74348435662340000000, 4873.84603466508270000000, 3926.15375014687200000000, 4778.97424211320500000000, 4002.56400468865420000000, 4654.87168104534430000000, 4323.07681736391440000000, 4419.48707141663270000000, 4388.71784139980810000000, 4195.89733329437150000000, 4441.53835292869100000000, 3767.69221556022330000000, 3926.15375014687200000000, 4375.38450839251710000000, 408.00000000000000000000, 1750.00000000000000000000, 1733.00000000000000000000, 0.00000000000000000000, 0.00000000000000000000, 235.00000000000000000000, 58.00000000000000000000, 4.00000000000000000000, 4.00000000000000000000, 3.00000000000000000000, 2.00000000000000000000, 4.00000000000000000000, 2.00000000000000000000, 4.00000000000000000000, 3.00000000000000000000, 4.00000000000000000000, 4.00000000000000000000, 4.00000000000000000000, 4.00000000000000000000, 4.00000000000000000000, 4.00000000000000000000, 4.00000000000000000000, 4.00000000000000000000
